Time (min)	Temperature (C)	Weight (mg)
0.002055556	19.75327	11.0803
0.004166667	19.75282	11.08037
0.0125	19.74379	11.08033
0.02083334	19.74408	11.08022
0.02916666	19.74525	11.08022
0.0375	19.74322	11.08026
0.04583334	19.74663	11.08024
0.05416668	19.74324	11.08014
0.0625	19.73969	11.0802
0.07083332	19.7438	11.08028
0.07916666	19.7437	11.08032
0.0875	19.74172	11.08042
0.09583332	19.74031	11.08065
0.1041666	19.74995	11.08091
0.1125	19.75028	11.08109
0.1208333	19.75672	11.08132
0.1291666	19.75504	11.08164
0.1375	19.76341	11.08199
0.1458333	19.76718	11.08229
0.1541667	19.77624	11.08256
0.1625	19.78572	11.08289
0.1708334	19.80345	11.08313
0.1791666	19.80178	11.08338
0.1875	19.80895	11.08368
0.1958334	19.82136	11.08394
0.2041667	19.83382	11.08412
0.2125	19.84379	11.08431
0.2208333	19.86383	11.08452
0.2291667	19.87621	11.08459
0.2375	19.88954	11.08472
0.2458334	19.90787	11.08484
0.2541666	19.92872	11.08496
0.2625	19.95296	11.085
0.2708334	19.97326	11.08504
0.2791667	19.99729	11.08511
0.2875	20.01516	11.08519
0.2958333	20.04262	11.08521
0.3041667	20.0706	11.0852
0.3125	20.09499	11.08528
0.3208333	20.12565	11.08532
0.3291667	20.1583	11.0853
0.3375	20.19065	11.08527
0.3458333	20.22595	11.08527
0.3541666	20.25704	11.0852
0.3625	20.29108	11.08513
0.3708334	20.33494	11.0851
0.3791666	20.37235	11.08511
0.3875	20.4116	11.08507
0.3958334	20.45402	11.08508
0.4041666	20.49781	11.08502
0.4125	20.54011	11.08497
0.4208333	20.59292	11.08491
0.4291667	20.63913	11.08486
0.4375	20.68732	11.08482
0.4458333	20.73634	11.08476
0.4541667	20.79261	11.08468
0.4625	20.8455	11.08461
0.4708334	20.90162	11.08456
0.4791666	20.9591	11.08443
0.4875	21.01684	11.08435
0.4958334	21.08013	11.0843
0.5041666	21.14111	11.08426
0.5125	21.20258	11.08418
0.5208332	21.27191	11.08409
0.5291666	21.34075	11.08402
0.5375	21.40734	11.0839
0.5458334	21.4716	11.08376
0.5541668	21.54742	11.08363
0.5625	21.62904	11.0835
0.5708332	21.69842	11.08339
0.5791666	21.77532	11.08326
0.5875	21.85603	11.0832
0.5958334	21.93408	11.0831
0.6041668	22.0181	11.08302
0.6125	22.10216	11.08297
0.6208334	22.1867	11.08296
0.6291666	22.28425	11.08294
0.6375	22.35988	11.08289
0.6458332	22.4543	11.08289
0.6541666	22.54188	11.08288
0.6625	22.63396	11.08286
0.6708334	22.72922	11.08277
0.6791668	22.82418	11.08274
0.6875	22.93868	11.08271
0.6958332	23.04168	11.08263
0.7041666	23.14204	11.08256
0.7125	23.24204	11.08253
0.7208334	23.34883	11.0825
0.7291668	23.4539	11.08242
0.7375	23.54683	11.08234
0.7458334	23.64983	11.08224
0.7541666	23.76575	11.08212
0.7625	23.87552	11.08201
0.7708332	23.98801	11.08194
0.7791666	24.10438	11.08188
0.7875	24.22422	11.08182
0.7958334	24.33668	11.08174
0.8041668	24.45534	11.08168
0.8125	24.5746	11.08163
0.8208332	24.70102	11.08154
0.8291666	24.82318	11.08151
0.8375	24.94683	11.0815
0.8458334	25.0725	11.08147
0.8541668	25.2017	11.0814
0.8625	25.33115	11.08134
0.8708332	25.46214	11.08128
0.8791668	25.59786	11.08121
0.8875	25.73171	11.08116
0.8958332	25.86388	11.0811
0.9041666	26.00023	11.08108
0.9125	26.13435	11.08106
0.9208334	26.27594	11.08103
0.9291668	26.41515	11.08104
0.9375	26.55825	11.08103
0.9458332	26.69914	11.08103
0.9541666	26.8437	11.081
0.9625	26.99155	11.08102
0.9708334	27.1355	11.081
0.9791668	27.28638	11.08089
0.9875	27.43705	11.08087
0.9958332	27.5866	11.08083
1.004167	27.73223	11.08076
1.0125	27.88924	11.08066
1.020833	28.03792	11.08056
1.029167	28.19182	11.08049
1.0375	28.35413	11.08043
1.045834	28.5064	11.08038
1.054167	28.66472	11.08034
1.0625	28.82758	11.08037
1.070833	28.98764	11.08038
1.079166	29.14419	11.0804
1.0875	29.30459	11.08044
1.095833	29.47026	11.08048
1.104166	29.63526	11.08053
1.1125	29.79996	11.08056
1.120833	29.96778	11.08058
1.129167	30.13445	11.08056
1.1375	30.30138	11.08057
1.145834	30.47063	11.08058
1.154167	30.63811	11.08054
1.1625	30.80478	11.08052
1.170834	30.98376	11.0805
1.179167	31.1532	11.0805
1.1875	31.32527	11.08045
1.195833	31.49794	11.08043
1.204166	31.67275	11.0804
1.2125	31.84612	11.08041
1.220833	32.02549	11.0804
1.229166	32.20084	11.0804
1.2375	32.37725	11.08042
1.245833	32.55224	11.0804
1.254167	32.73104	11.08041
1.2625	32.91045	11.08042
1.270834	33.09125	11.08046
1.279167	33.27013	11.08045
1.2875	33.45192	11.08045
1.295834	33.63546	11.08044
1.304167	33.82135	11.08047
1.3125	33.99988	11.08047
1.320833	34.18594	11.0804
1.329166	34.3652	11.0804
1.3375	34.55436	11.08036
1.345833	34.746	11.08032
1.354166	34.92512	11.08031
1.3625	35.10974	11.0803
1.370833	35.29811	11.0803
1.379167	35.48636	11.08032
1.3875	35.67328	11.08031
1.395834	35.86057	11.08034
1.404167	36.04356	11.08039
1.4125	36.23656	11.08038
1.420834	36.42256	11.0804
1.429167	36.61474	11.08043
1.4375	36.8059	11.08043
1.445833	36.99924	11.08043
1.454166	37.18078	11.08039
1.4625	37.37808	11.08033
1.470833	37.56676	11.0803
1.479166	37.75735	11.08028
1.4875	37.94925	11.08024
1.495833	38.15878	11.08023
1.504167	38.35022	11.08022
1.5125	38.54426	11.08022
1.520834	38.7373	11.08025
1.529167	38.92597	11.08026
1.5375	39.11611	11.0803
1.545834	39.30429	11.08038
1.554167	39.49187	11.08044
1.5625	39.68528	11.08044
1.570833	39.88194	11.08052
1.579166	40.06872	11.08054
1.5875	40.26468	11.08052
1.595833	40.4602	11.08051
1.604166	40.65381	11.08049
1.6125	40.84895	11.08049
1.620833	41.03803	11.08054
1.629167	41.23544	11.08049
1.6375	41.42755	11.08046
1.645834	41.62344	11.08047
1.654167	41.81895	11.08047
1.6625	42.0122	11.08049
1.670834	42.20546	11.08054
1.679166	42.39854	11.08055
1.6875	42.60041	11.08056
1.695834	42.78873	11.08056
1.704166	42.98104	11.08054
1.7125	43.17692	11.0806
1.720833	43.37368	11.08061
1.729166	43.56666	11.08063
1.7375	43.76109	11.08062
1.745833	43.95466	11.08064
1.754167	44.14743	11.08066
1.7625	44.34094	11.0807
1.770834	44.53852	11.08072
1.779167	44.73078	11.08077
1.7875	44.92579	11.08079
1.795834	45.12266	11.08079
1.804166	45.3135	11.08082
1.8125	45.505	11.08085
1.820834	45.69812	11.08088
1.829166	45.89074	11.0809
1.8375	46.0843	11.08089
1.845833	46.27731	11.0809
1.854166	46.4732	11.08092
1.8625	46.66624	11.08091
1.870833	46.8571	11.08091
1.879167	47.04918	11.08094
1.8875	47.24198	11.08093
1.895834	47.4376	11.08088
1.904167	47.62463	11.08085
1.9125	47.81404	11.0808
1.920834	48.01059	11.08079
1.929166	48.19535	11.08081
1.9375	48.39131	11.08081
1.945834	48.58351	11.08084
1.954166	48.77447	11.08089
1.9625	48.96512	11.08088
1.970833	49.15259	11.08089
1.979166	49.3396	11.08094
1.9875	49.53389	11.08096
1.995833	49.71859	11.08098
2.004166	49.90984	11.08099
2.0125	50.09969	11.08097
2.020833	50.28701	11.08097
2.029167	50.47456	11.08091
2.0375	50.66162	11.08095
2.045834	50.85041	11.08096
2.054166	51.03831	11.081
2.0625	51.22564	11.081
2.070834	51.4127	11.08104
2.079166	51.59837	11.08108
2.0875	51.7833	11.08112
2.095833	51.9749	11.08116
2.104167	52.162	11.0812
2.1125	52.3425	11.08125
2.120834	52.5294	11.08122
2.129166	52.71482	11.0813
2.1375	52.8963	11.08129
2.145833	53.0856	11.08128
2.154167	53.27038	11.0813
2.1625	53.4532	11.08135
2.170834	53.63346	11.08138
2.179166	53.81834	11.0814
2.1875	54.0031	11.08141
2.195834	54.18293	11.08144
2.204166	54.36524	11.08144
2.2125	54.54678	11.08137
2.220833	54.73176	11.08143
2.229167	54.91097	11.08147
2.2375	55.09441	11.0815
2.245834	55.27654	11.0815
2.254166	55.46119	11.08152
2.2625	55.63741	11.08154
2.270833	55.81843	11.08157
2.279167	55.99636	11.08157
2.2875	56.17986	11.0816
2.295834	56.35586	11.08159
2.304166	56.5345	11.08157
2.3125	56.71457	11.08156
2.320834	56.89325	11.08156
2.329166	57.07387	11.08159
2.3375	57.24754	11.0816
2.345833	57.4292	11.08159
2.354167	57.61952	11.08156
2.3625	57.792	11.08157
2.370834	57.95816	11.08159
2.379166	58.13642	11.08164
2.3875	58.3093	11.08166
2.395833	58.48486	11.08169
2.404167	58.66546	11.08169
2.4125	58.83701	11.08166
2.420834	59.01353	11.08164
2.429166	59.18865	11.08166
2.4375	59.35863	11.08168
2.445834	59.53772	11.0817
2.454166	59.70984	11.08172
2.4625	59.88243	11.08175
2.470833	60.05612	11.08179
2.479167	60.23268	11.08176
2.4875	60.40464	11.08176
2.495834	60.57288	11.0818
2.504166	60.74936	11.08181
2.5125	60.92348	11.0818
2.520833	61.08865	11.0818
2.529167	61.2683	11.08183
2.5375	61.44586	11.08183
2.545834	61.62574	11.08182
2.554166	61.79278	11.08181
2.5625	61.96074	11.08187
2.570834	62.11742	11.08189
2.579166	62.28936	11.08191
2.5875	62.45801	11.08193
2.595833	62.62468	11.08197
2.604167	62.79961	11.08202
2.6125	62.965	11.08203
2.620834	63.13787	11.08199
2.629166	63.30269	11.08196
2.6375	63.47586	11.08195
2.645833	63.64716	11.08189
2.654167	63.81292	11.08187
2.6625	63.97876	11.0818
2.670834	64.1447	11.08176
2.679166	64.3148	11.08179
2.6875	64.4826	11.08177
2.695834	64.64832	11.08174
2.704166	64.81629	11.08179
2.7125	64.98135	11.08181
2.720833	65.15026	11.08184
2.729167	65.31937	11.08188
2.7375	65.49658	11.08193
2.745834	65.66056	11.08203
2.754166	65.82988	11.08209
2.7625	65.99081	11.08209
2.770833	66.1585	11.08215
2.779167	66.32376	11.0822
2.7875	66.4782	11.08225
2.795834	66.6374	11.08231
2.804166	66.80039	11.08236
2.8125	66.96549	11.08239
2.820834	67.13122	11.0824
2.829166	67.29618	11.08239
2.8375	67.45762	11.08242
2.845833	67.62319	11.08243
2.854167	67.7861	11.08243
2.8625	67.95056	11.08242
2.870834	68.11241	11.08243
2.879166	68.2753	11.0824
2.8875	68.43909	11.08245
2.895833	68.60263	11.08253
2.904167	68.76189	11.08252
2.9125	68.92899	11.08251
2.920834	69.08984	11.0825
2.929166	69.25196	11.08245
2.9375	69.41588	11.08244
2.945834	69.5779	11.08239
2.954166	69.73513	11.08234
2.9625	69.89795	11.08231
2.970833	70.06132	11.08219
2.979167	70.2253	11.08209
2.9875	70.38504	11.08208
2.995834	70.56232	11.08206
3.004166	70.7223	11.0821
3.0125	70.87795	11.08214
3.020833	71.03394	11.08215
3.029167	71.18962	11.08222
3.0375	71.35522	11.08224
3.045834	71.51482	11.08227
3.054166	71.67111	11.08235
3.0625	71.83544	11.08236
3.070834	71.99512	11.08236
3.079166	72.15532	11.08238
3.0875	72.31794	11.08234
3.095833	72.47914	11.0823
3.104167	72.63945	11.08237
3.1125	72.80171	11.08237
3.120834	72.9571	11.0824
3.129166	73.1189	11.08243
3.1375	73.27815	11.08245
3.145833	73.43489	11.08246
3.154167	73.60205	11.08251
3.1625	73.75922	11.08251
3.170834	73.91968	11.0825
3.179166	74.08062	11.08253
3.1875	74.23843	11.08248
3.195834	74.39955	11.08248
3.204167	74.56098	11.08247
3.2125	74.71345	11.08247
3.220833	74.87869	11.08243
3.229167	75.03744	11.08244
3.2375	75.19678	11.08242
3.245834	75.35524	11.08241
3.254166	75.51494	11.0824
3.2625	75.67358	11.08235
3.270833	75.834	11.08233
3.279167	75.9918	11.08231
3.2875	76.1512	11.08229
3.295833	76.31139	11.08226
3.304166	76.46922	11.08231
3.3125	76.63114	11.08232
3.320834	76.79184	11.08234
3.329167	76.94712	11.08234
3.3375	77.10808	11.0824
3.345833	77.26894	11.08247
3.354167	77.42442	11.08251
3.3625	77.5827	11.08256
3.370834	77.74646	11.08259
3.379166	77.90571	11.0826
3.3875	78.06209	11.08256
3.395833	78.2207	11.08254
3.404167	78.38224	11.08255
3.4125	78.54263	11.08255
3.420833	78.69758	11.0825
3.429166	78.85839	11.08244
3.4375	79.0159	11.08239
3.445834	79.17676	11.08234
3.454167	79.3377	11.08228
3.4625	79.49482	11.08225
3.470833	79.65636	11.08226
3.479167	79.81624	11.08228
3.4875	79.97738	11.08229
3.495834	80.13396	11.08229
3.504166	80.29042	11.0823
3.5125	80.45361	11.08234
3.520833	80.61105	11.08237
3.529167	80.7715	11.0824
3.5375	80.92906	11.08245
3.545833	81.08887	11.08248
3.554166	81.24844	11.08246
3.5625	81.40816	11.08242
3.570834	81.56814	11.0824
3.579167	81.72769	11.0824
3.5875	81.8862	11.0824
3.595833	82.04648	11.08237
3.604167	82.20545	11.08235
3.6125	82.36724	11.08233
3.620834	82.52751	11.08235
3.629166	82.68934	11.08236
3.6375	82.84722	11.08238
3.645833	83.00447	11.08241
3.654167	83.16634	11.08241
3.6625	83.32724	11.08243
3.670833	83.485	11.08245
3.679166	83.64688	11.08246
3.6875	83.80669	11.0825
3.695834	83.9712	11.08252
3.704167	84.12774	11.08246
3.7125	84.28419	11.08238
3.720833	84.44603	11.08235
3.729167	84.60858	11.08229
3.7375	84.76747	11.08224
3.745834	84.93028	11.08218
3.754166	85.08996	11.08211
3.7625	85.25249	11.08206
3.770833	85.41381	11.08202
3.779167	85.57384	11.08197
3.7875	85.73561	11.08204
3.795833	85.89799	11.08209
3.804166	86.05415	11.0821
3.8125	86.21825	11.08216
3.820834	86.37951	11.0822
3.829167	86.53734	11.08223
3.8375	86.69982	11.08224
3.845833	86.85968	11.08224
3.854167	87.02538	11.08219
3.8625	87.18429	11.08214
3.870834	87.34303	11.08205
3.879166	87.50851	11.08203
3.8875	87.66926	11.08205
3.895833	87.83231	11.08199
3.904167	87.9896	11.08199
3.9125	88.15305	11.08199
3.920833	88.31311	11.082
3.929166	88.47801	11.08203
3.9375	88.63681	11.08207
3.945834	88.80055	11.08211
3.954167	88.96344	11.08215
3.9625	89.12411	11.08215
3.970833	89.28554	11.08211
3.979167	89.45099	11.08211
3.9875	89.62288	11.08209
3.995834	89.77982	11.08209
4.004166	89.93781	11.0821
4.0125	90.09672	11.08211
4.020834	90.25988	11.08213
4.029167	90.42424	11.08218
4.0375	90.58684	11.08221
4.045833	90.74946	11.08222
4.054167	90.91004	11.08224
4.0625	91.0716	11.08224
4.070833	91.23679	11.08224
4.079167	91.40076	11.08223
4.0875	91.56139	11.0822
4.095833	91.72665	11.08218
4.104166	91.88996	11.08216
4.1125	92.05199	11.08212
4.120834	92.21481	11.08208
4.129166	92.37819	11.08209
4.1375	92.54181	11.08207
4.145834	92.70491	11.08207
4.154167	92.86964	11.08206
4.1625	93.03461	11.08202
4.170833	93.19822	11.08202
4.179167	93.36004	11.08201
4.1875	93.52348	11.08198
4.195833	93.68398	11.08196
4.204167	93.84714	11.08194
4.2125	94.01376	11.08191
4.220833	94.17674	11.0819
4.229166	94.33992	11.08189
4.2375	94.50606	11.08184
4.245834	94.67053	11.08184
4.254166	94.8447	11.08178
4.2625	95.00874	11.08174
4.270834	95.17628	11.08169
4.279167	95.33874	11.08164
4.2875	95.49762	11.08157
4.295833	95.65395	11.08154
4.304167	95.81661	11.08144
4.3125	95.98136	11.0814
4.320833	96.1462	11.08138
4.329167	96.31181	11.08132
4.3375	96.47601	11.0813
4.345833	96.64149	11.08126
4.354166	96.80947	11.08126
4.3625	96.97345	11.08125
4.370834	97.13789	11.0813
4.379166	97.30238	11.08131
4.3875	97.46805	11.08136
4.395834	97.63025	11.08138
4.404167	97.7998	11.0814
4.4125	97.95995	11.08144
4.420833	98.12696	11.08145
4.429167	98.29707	11.08145
4.4375	98.46066	11.08142
4.445833	98.62222	11.08141
4.454167	98.79019	11.08137
4.4625	98.95434	11.08134
4.470833	99.12039	11.08126
4.479166	99.28259	11.08116
4.4875	99.45222	11.08111
4.495834	99.61684	11.08108
4.504166	99.78468	11.081
4.5125	99.9482	11.08098
4.520834	100.1151	11.08093
4.529167	100.2768	11.08091
4.5375	100.4456	11.08089
4.545833	100.6139	11.08086
4.554167	100.779	11.0809
4.5625	100.9449	11.08092
4.570833	101.1129	11.08091
4.579167	101.2761	11.08091
4.5875	101.4394	11.08091
4.595833	101.6105	11.08089
4.604166	101.7761	11.08092
4.6125	101.9398	11.08091
4.620834	102.1073	11.08089
4.629166	102.2732	11.08087
4.6375	102.4381	11.08079
4.645834	102.6088	11.0807
4.654167	102.7716	11.08068
4.6625	102.9426	11.08062
4.670833	103.1064	11.0806
4.679167	103.2722	11.08061
4.6875	103.4358	11.08053
4.695833	103.6041	11.0805
4.704167	103.7712	11.08047
4.7125	103.9416	11.08046
4.720833	104.1075	11.08045
4.729166	104.2748	11.08044
4.7375	104.4398	11.08038
4.745834	104.605	11.08035
4.754166	104.7773	11.08029
4.7625	104.9409	11.08024
4.770834	105.11	11.08028
4.779167	105.2764	11.08025
4.7875	105.4422	11.08021
4.795833	105.6118	11.08016
4.804167	105.7752	11.08018
4.8125	105.9443	11.08021
4.820833	106.1075	11.08024
4.829167	106.2794	11.08026
4.8375	106.4453	11.08028
4.845833	106.6126	11.08024
4.854166	106.782	11.08019
4.8625	106.948	11.08016
4.870834	107.1148	11.08015
4.879166	107.2824	11.0801
4.8875	107.4501	11.08004
4.895834	107.6174	11.07999
4.904167	107.7841	11.07993
4.9125	107.9528	11.0799
4.920833	108.1211	11.07988
4.929167	108.2872	11.07986
4.9375	108.4554	11.07981
4.945833	108.6239	11.07976
4.954167	108.7921	11.07972
4.9625	108.9598	11.07971
4.970833	109.1244	11.0797
4.979166	109.2942	11.07969
4.9875	109.4611	11.07965
4.995834	109.6274	11.07959
5.004166	109.7974	11.07955
5.0125	109.9742	11.07951
5.020834	110.1448	11.07948
5.029167	110.3109	11.07947
5.0375	110.478	11.07943
5.045833	110.6458	11.07937
5.054167	110.8123	11.07934
5.0625	110.9674	11.07925
5.070833	111.1381	11.0792
5.079167	111.3075	11.07916
5.0875	111.4734	11.07912
5.095833	111.6419	11.07907
5.104166	111.8086	11.07902
5.1125	111.9776	11.07895
5.120834	112.1456	11.07893
5.129166	112.3164	11.07894
5.1375	112.4843	11.07889
5.145834	112.6483	11.07889
5.154167	112.8164	11.07887
5.1625	112.9842	11.07886
5.170833	113.1528	11.07884
5.179167	113.3218	11.0788
5.1875	113.4916	11.0788
5.195833	113.6573	11.07881
5.204167	113.8238	11.07876
5.2125	113.991	11.07869
5.220833	114.162	11.07865
5.229166	114.3298	11.07861
5.2375	114.4966	11.07857
5.245834	114.6646	11.07852
5.254166	114.8352	11.07846
5.2625	115.0028	11.07841
5.270834	115.1722	11.07832
5.279168	115.3393	11.07826
5.2875	115.5064	11.07819
5.295832	115.6758	11.07815
5.304168	115.8441	11.07814
5.3125	116.0138	11.0781
5.320832	116.1801	11.07806
5.329168	116.349	11.07802
5.3375	116.5192	11.07796
5.345832	116.6881	11.07788
5.354166	116.8538	11.07782
5.3625	117.0199	11.07774
5.370834	117.1886	11.0777
5.379166	117.3547	11.07765
5.3875	117.5274	11.07757
5.395834	117.6944	11.07755
5.404168	117.8612	11.07753
5.4125	118.03	11.07749
5.420832	118.1976	11.07748
5.429168	118.3656	11.07747
5.4375	118.5352	11.07746
5.445832	118.7038	11.07746
5.454168	118.8724	11.07742
5.4625	119.0384	11.07735
5.470832	119.2082	11.07729
5.479166	119.376	11.07718
5.4875	119.544	11.07708
5.495834	119.7126	11.07698
5.504166	119.8788	11.07691
5.5125	120.0456	11.07683
5.520834	120.2136	11.07675
5.529168	120.3852	11.07667
5.5375	120.5514	11.07659
5.545832	120.7218	11.07652
5.554168	120.8912	11.07646
5.5625	121.0596	11.07641
5.570832	121.225	11.0764
5.579168	121.3933	11.07635
5.5875	121.5649	11.07629
5.595832	121.7296	11.07625
5.604166	121.8987	11.07623
5.6125	122.07	11.07619
5.620834	122.2461	11.07614
5.629166	122.4033	11.07611
5.6375	122.5736	11.07606
5.645834	122.7393	11.076
5.654168	122.9193	11.07593
5.6625	123.0886	11.07588
5.670832	123.2566	11.07583
5.679168	123.4233	11.07578
5.6875	123.591	11.07573
5.695832	123.757	11.07566
5.704168	123.9281	11.07561
5.7125	124.0967	11.07553
5.720832	124.2691	11.07548
5.729166	124.4355	11.07542
5.7375	124.6014	11.07535
5.745834	124.7683	11.07527
5.754166	124.9358	11.0752
5.7625	125.1067	11.0751
5.770834	125.2719	11.07502
5.779168	125.4407	11.07493
5.7875	125.6061	11.07482
5.795832	125.7723	11.07475
5.804168	125.9324	11.07465
5.8125	126.0961	11.07453
5.820832	126.2663	11.07442
5.829168	126.4343	11.07431
5.8375	126.6025	11.07422
5.845832	126.7722	11.0742
5.854166	126.938	11.07412
5.8625	127.1057	11.07406
5.870834	127.2733	11.07404
5.879166	127.4384	11.07401
5.8875	127.6086	11.07399
5.895834	127.7745	11.07398
5.904168	127.9427	11.07397
5.9125	128.11	11.07397
5.920832	128.2789	11.07393
5.929168	128.4482	11.07385
5.9375	128.6138	11.07382
5.945832	128.7824	11.07376
5.954168	128.9505	11.0737
5.9625	129.1201	11.07361
5.970832	129.2808	11.07354
5.979166	129.4544	11.07345
5.9875	129.6221	11.07337
5.995834	129.7884	11.07329
6.004166	129.9543	11.07321
6.0125	130.1249	11.0731
6.020834	130.2897	11.073
6.029168	130.459	11.07294
6.0375	130.6236	11.07287
6.045832	130.7946	11.0728
6.054168	130.9629	11.07274
6.0625	131.1295	11.07268
6.070832	131.2982	11.0726
6.079168	131.4646	11.0725
6.0875	131.631	11.07243
6.095832	131.7994	11.07236
6.104166	131.9662	11.07226
6.1125	132.1367	11.07215
6.120834	132.3031	11.07205
6.129166	132.4774	11.07196
6.1375	132.6352	11.07186
6.145834	132.8044	11.07176
6.154168	132.9698	11.07167
6.1625	133.1407	11.0716
6.170832	133.3085	11.0715
6.179168	133.4748	11.0714
6.1875	133.6436	11.07133
6.195832	133.8108	11.07124
6.204168	133.975	11.07112
6.2125	134.1403	11.07102
6.220832	134.3103	11.07092
6.229166	134.4772	11.07083
6.2375	134.6469	11.07076
6.245834	134.8132	11.07067
6.254166	134.9801	11.0706
6.2625	135.147	11.07053
6.270834	135.3142	11.07044
6.279168	135.4831	11.07035
6.2875	135.6498	11.07029
6.295832	135.815	11.07019
6.304168	135.9817	11.07011
6.3125	136.1531	11.07001
6.320832	136.3175	11.0699
6.329168	136.4854	11.06978
6.3375	136.6546	11.06967
6.345832	136.821	11.06958
6.354166	136.9892	11.06947
6.3625	137.1538	11.06935
6.370834	137.322	11.06926
6.379166	137.4891	11.06916
6.3875	137.6572	11.06904
6.395834	137.8253	11.06898
6.404166	137.993	11.06888
6.4125	138.1604	11.06883
6.420832	138.3237	11.06874
6.429168	138.4914	11.06866
6.4375	138.6574	11.0686
6.445832	138.825	11.06856
6.454168	138.9928	11.06846
6.4625	139.1617	11.06839
6.470834	139.3264	11.06832
6.479166	139.496	11.06818
6.4875	139.6632	11.06808
6.495834	139.8297	11.06801
6.504166	139.9959	11.06794
6.5125	140.1621	11.06785
6.520834	140.3319	11.06778
6.529166	140.4971	11.06769
6.5375	140.6628	11.0676
6.545832	140.8306	11.06749
6.554168	140.998	11.06739
6.5625	141.163	11.06733
6.570832	141.3329	11.06722
6.579168	141.4937	11.06707
6.5875	141.6662	11.06686
6.595834	141.8334	11.06673
6.604166	141.9979	11.06653
6.6125	142.1635	11.06639
6.620834	142.3322	11.06625
6.629166	142.4966	11.06616
6.6375	142.6626	11.06606
6.645834	142.8331	11.06596
6.654166	142.9985	11.06585
6.6625	143.1652	11.06572
6.670832	143.3328	11.06564
6.679168	143.4989	11.06553
6.6875	143.6651	11.06545
6.695832	143.8301	11.06535
6.704168	143.9994	11.06528
6.7125	144.1633	11.06516
6.720834	144.3276	11.06499
6.729166	144.4931	11.06486
6.7375	144.659	11.06476
6.745834	144.8363	11.06466
6.754166	145.006	11.06454
6.7625	145.1736	11.06441
6.770834	145.336	11.0643
6.779166	145.5011	11.06418
6.7875	145.668	11.06402
6.795832	145.835	11.06386
6.804168	146.0001	11.06374
6.8125	146.166	11.06358
6.820832	146.3342	11.06345
6.829168	146.4974	11.06336
6.8375	146.6626	11.06323
6.845834	146.8198	11.06314
6.854166	146.9833	11.06301
6.8625	147.1476	11.06281
6.870834	147.3135	11.06271
6.879166	147.4776	11.06261
6.8875	147.6446	11.06249
6.895834	147.8117	11.06238
6.904166	147.9724	11.06225
6.9125	148.1407	11.06202
6.920832	148.307	11.06192
6.929168	148.4743	11.06175
6.9375	148.6362	11.06163
6.945832	148.8052	11.06158
6.954168	148.9685	11.06142
6.9625	149.1342	11.06131
6.970834	149.2984	11.0612
6.979166	149.4632	11.06108
6.9875	149.6315	11.06098
6.995834	149.7928	11.06094
7.004166	149.9594	11.06081
7.0125	150.1258	11.06069
7.020834	150.289	11.06053
7.029166	150.4552	11.06035
7.0375	150.6204	11.06026
7.045832	150.7854	11.0601
7.054168	150.9492	11.05995
7.0625	151.1155	11.05978
7.070832	151.2808	11.05962
7.079168	151.4421	11.05947
7.0875	151.6067	11.05935
7.095834	151.7754	11.05921
7.104166	151.9377	11.0591
7.1125	152.1053	11.05898
7.120834	152.268	11.05883
7.129166	152.4339	11.05873
7.1375	152.5997	11.05857
7.145834	152.7628	11.05843
7.154166	152.9288	11.05828
7.1625	153.0921	11.05812
7.170832	153.2578	11.05796
7.179168	153.4228	11.05784
7.1875	153.5858	11.05766
7.195832	153.7523	11.05753
7.204168	153.9152	11.05738
7.2125	154.0799	11.05719
7.220834	154.244	11.05703
7.229166	154.4082	11.05687
7.2375	154.5719	11.05674
7.245834	154.736	11.05659
7.254166	154.9003	11.05643
7.2625	155.0666	11.05626
7.270834	155.2306	11.05613
7.279166	155.3961	11.05597
7.2875	155.5583	11.0558
7.295832	155.7221	11.05569
7.304168	155.8837	11.0556
7.3125	156.0488	11.05556
7.320832	156.21	11.05546
7.329168	156.3744	11.05534
7.3375	156.5362	11.05524
7.345834	156.6991	11.0552
7.354166	156.8605	11.05516
7.3625	157.0223	11.05519
7.370834	157.1851	11.05522
7.379166	157.3454	11.05526
7.3875	157.5059	11.05536
7.395834	157.6668	11.05552
7.404166	157.8287	11.05577
7.4125	157.9913	11.05604
7.420832	158.1514	11.05628
7.429168	158.3109	11.05644
7.4375	158.4732	11.05654
7.445832	158.634	11.05654
7.454168	158.794	11.05641
7.4625	158.9514	11.05624
7.470834	159.1108	11.05588
7.479166	159.2702	11.05526
7.4875	159.4316	11.05449
7.495834	159.5889	11.05356
7.504166	159.7515	11.05246
7.5125	159.9091	11.05126
7.520834	160.0712	11.04997
7.529166	160.2268	11.04859
7.5375	160.389	11.04721
7.545832	160.5466	11.0457
7.554168	160.7086	11.04423
7.5625	160.8664	11.04279
7.570832	161.0299	11.04139
7.579168	161.1882	11.04008
7.5875	161.3492	11.03888
7.595834	161.5151	11.03777
7.604166	161.6749	11.03677
7.6125	161.8345	11.03587
7.620834	161.9969	11.03506
7.629166	162.1606	11.03434
7.6375	162.3249	11.03371
7.645834	162.4868	11.03319
7.654166	162.6495	11.03276
7.6625	162.8149	11.03234
7.670832	162.9791	11.03199
7.679168	163.1458	11.03168
7.6875	163.3107	11.03144
7.695832	163.4732	11.03122
7.704168	163.6391	11.03103
7.7125	163.8045	11.03087
7.720834	163.9742	11.03068
7.729166	164.139	11.03046
7.7375	164.3037	11.03022
7.745834	164.4737	11.03012
7.754166	164.6378	11.0299
7.7625	164.8091	11.02972
7.770834	164.9763	11.02954
7.779166	165.1453	11.02937
7.7875	165.3122	11.02921
7.795832	165.4829	11.02906
7.804168	165.6504	11.02897
7.8125	165.8201	11.0289
7.820832	165.9907	11.02888
7.829168	166.1569	11.02877
7.8375	166.3296	11.02877
7.845834	166.4949	11.02873
7.854166	166.6649	11.02868
7.8625	166.83	11.02861
7.870834	167.0017	11.02855
7.879166	167.1707	11.0285
7.8875	167.3439	11.02843
7.895834	167.5171	11.02838
7.904166	167.6833	11.0283
7.9125	167.8567	11.02825
7.920832	168.0299	11.02821
7.929168	168.2088	11.02817
7.9375	168.3798	11.02817
7.945832	168.5517	11.02815
7.954168	168.7216	11.0281
7.9625	168.8949	11.02804
7.970834	169.067	11.02801
7.979166	169.2384	11.02797
7.9875	169.4109	11.02794
7.995834	169.5814	11.02787
8.004166	169.7548	11.02784
8.0125	169.9259	11.0278
8.020832	170.0986	11.02771
8.029166	170.2709	11.02766
8.0375	170.4448	11.02764
8.045834	170.6153	11.02764
8.054168	170.7858	11.02763
8.0625	170.9614	11.02763
8.070832	171.133	11.02762
8.079166	171.3054	11.02761
8.0875	171.4768	11.02757
8.095834	171.65	11.02754
8.104168	171.8224	11.02751
8.1125	171.9967	11.02744
8.120834	172.1664	11.02734
8.129166	172.3403	11.02721
8.1375	172.514	11.02707
8.145832	172.6881	11.02693
8.154166	172.8586	11.0268
8.1625	173.0296	11.02666
8.170834	173.2028	11.02652
8.179168	173.3745	11.02637
8.1875	173.5475	11.02625
8.195832	173.7218	11.02614
8.204166	173.8953	11.02607
8.2125	174.0669	11.02592
8.220834	174.2404	11.02576
8.229168	174.4108	11.02564
8.2375	174.5854	11.02551
8.245834	174.7588	11.0254
8.254166	174.9316	11.02528
8.2625	175.103	11.02516
8.270832	175.2762	11.02502
8.279166	175.4488	11.02488
8.2875	175.6218	11.02473
8.295834	175.7914	11.02466
8.304168	175.968	11.02459
8.3125	176.1391	11.02446
8.320832	176.3138	11.02432
8.329166	176.4864	11.02415
8.3375	176.6551	11.02401
8.345834	176.828	11.02386
8.354168	177.0019	11.02371
8.3625	177.1741	11.02353
8.370834	177.3465	11.02337
8.379166	177.5211	11.0232
8.3875	177.692	11.02301
8.395832	177.8693	11.02275
8.404166	178.0507	11.02259
8.4125	178.2235	11.02243
8.420834	178.3966	11.02223
8.429168	178.5702	11.02206
8.4375	178.7395	11.02189
8.445832	178.9136	11.02177
8.454166	179.0833	11.0216
8.4625	179.2569	11.02144
8.470834	179.4281	11.02134
8.479168	179.6007	11.0213
8.4875	179.7726	11.02117
8.495834	179.9371	11.02104
8.504166	180.1076	11.02092
8.5125	180.2806	11.02076
8.520832	180.4515	11.02064
8.529166	180.6206	11.02052
8.5375	180.7981	11.0204
8.545834	180.9646	11.0203
8.554168	181.1436	11.02017
8.5625	181.3093	11.02004
8.570832	181.4822	11.01991
8.579166	181.652	11.01976
8.5875	181.8244	11.01962
8.595834	182.0005	11.01952
8.604168	182.1711	11.01936
8.6125	182.3406	11.01919
8.620834	182.5136	11.01903
8.629166	182.6881	11.01886
8.6375	182.8609	11.01868
8.645832	183.0316	11.01848
8.654166	183.2027	11.0183
8.6625	183.373	11.01816
8.670834	183.5456	11.01801
8.679168	183.7146	11.01783
8.6875	183.8875	11.01764
8.695832	184.0584	11.01751
8.704166	184.2327	11.01736
8.7125	184.4004	11.01718
8.720834	184.5748	11.01704
8.729168	184.7436	11.01691
8.7375	184.9185	11.01675
8.745834	185.0868	11.01661
8.754166	185.2582	11.01647
8.7625	185.4284	11.01634
8.770832	185.6012	11.0162
8.779166	185.7735	11.01606
8.7875	185.9444	11.01594
8.795834	186.1142	11.01581
8.804168	186.2867	11.0156
8.8125	186.4604	11.01543
8.820832	186.6291	11.01528
8.829166	186.7995	11.01511
8.8375	186.9716	11.01494
8.845834	187.1427	11.0147
8.854168	187.3117	11.01449
8.8625	187.4841	11.0143
8.870834	187.6573	11.01408
8.879166	187.8262	11.0139
8.8875	187.9975	11.01376
8.895832	188.167	11.01361
8.904166	188.3403	11.01344
8.9125	188.5106	11.01325
8.920834	188.6834	11.01304
8.929168	188.852	11.01296
8.9375	189.0232	11.01287
8.945832	189.1939	11.01266
8.954166	189.3712	11.0125
8.9625	189.5337	11.01236
8.970834	189.7055	11.01218
8.979168	189.8729	11.01202
8.9875	190.0458	11.01189
8.995834	190.2172	11.01173
9.004166	190.3873	11.01162
9.0125	190.5584	11.01142
9.020832	190.727	11.01125
9.029166	190.8974	11.01114
9.0375	191.0694	11.01096
9.045834	191.2375	11.01076
9.054168	191.4091	11.01059
9.0625	191.5818	11.01035
9.070832	191.7502	11.01012
9.079166	191.932	11.00991
9.0875	192.1035	11.00969
9.095834	192.2715	11.00948
9.104168	192.4444	11.00924
9.1125	192.6132	11.00902
9.120834	192.7835	11.00883
9.129166	192.954	11.00868
9.1375	193.1238	11.00853
9.145832	193.2943	11.00842
9.154166	193.4631	11.00831
9.1625	193.6347	11.00818
9.170834	193.7983	11.00808
9.179168	193.9661	11.00798
9.1875	194.1342	11.00787
9.195832	194.3041	11.00771
9.204166	194.4715	11.00768
9.2125	194.6439	11.00752
9.220834	194.813	11.00738
9.229168	194.9848	11.00722
9.2375	195.1548	11.00708
9.245834	195.3242	11.00693
9.254166	195.4948	11.00677
9.2625	195.6644	11.00662
9.270832	195.8334	11.00647
9.279166	196.0066	11.00638
9.2875	196.1758	11.00617
9.295834	196.3451	11.00605
9.304168	196.5128	11.00588
9.3125	196.6862	11.00573
9.320832	196.8535	11.00556
9.329166	197.0241	11.00541
9.3375	197.1926	11.00527
9.345834	197.3616	11.00515
9.354168	197.5324	11.005
9.3625	197.7037	11.00483
9.370834	197.8736	11.00466
9.379166	198.0431	11.00451
9.3875	198.2232	11.00436
9.395832	198.3942	11.0042
9.404166	198.5618	11.00404
9.4125	198.7317	11.00389
9.420834	198.9017	11.0037
9.429168	199.0741	11.00349
9.4375	199.2372	11.00334
9.445832	199.3991	11.0032
9.454166	199.5701	11.00302
9.4625	199.7379	11.00284
9.470834	199.9102	11.00269
9.479168	200.0768	11.00254
9.4875	200.2464	11.00241
9.495834	200.42	11.00227
9.504166	200.5891	11.00212
9.5125	200.7576	11.00196
9.520832	200.9253	11.00173
9.529166	201.0957	11.00158
9.5375	201.2652	11.00142
9.545834	201.4363	11.0012
9.554168	201.602	11.001
9.5625	201.7737	11.00084
9.570832	201.9455	11.00067
9.579166	202.1124	11.00048
9.5875	202.2849	11.00032
9.595834	202.452	11.00017
9.604168	202.624	11.00007
9.6125	202.7942	10.99992
9.620834	202.9612	10.99978
9.629166	203.1302	10.99969
9.6375	203.3012	10.99957
9.645832	203.4688	10.99944
9.654166	203.6412	10.9993
9.6625	203.811	10.99916
9.670834	203.9799	10.99902
9.679168	204.1521	10.99885
9.6875	204.3161	10.99871
9.695832	204.4879	10.9985
9.704166	204.6572	10.99833
9.7125	204.8264	10.99821
9.720834	204.9962	10.99806
9.729168	205.1649	10.99788
9.7375	205.3354	10.99772
9.745834	205.5058	10.99758
9.754166	205.673	10.99743
9.7625	205.8432	10.99728
9.770832	206.0139	10.99708
9.779166	206.1816	10.99693
9.7875	206.3495	10.9968
9.795834	206.5195	10.9966
9.804168	206.6901	10.99642
9.8125	206.8596	10.99625
9.820832	207.0286	10.9961
9.829166	207.1989	10.99591
9.8375	207.3789	10.99576
9.845834	207.5452	10.99563
9.854168	207.7039	10.99552
9.8625	207.8752	10.99542
9.870834	208.0434	10.99532
9.879166	208.2128	10.9952
9.8875	208.3821	10.99509
9.895832	208.5491	10.99497
9.904166	208.7198	10.99482
9.9125	208.8906	10.99468
9.920834	209.0602	10.99452
9.929168	209.2294	10.99436
9.9375	209.3994	10.99423
9.945832	209.5699	10.9941
9.954166	209.7362	10.99393
9.9625	209.907	10.99379
9.970834	210.0776	10.99363
9.979168	210.2447	10.99345
9.9875	210.4124	10.99324
9.995834	210.5841	10.99312
10.00417	210.755	10.99296
10.0125	210.9239	10.99278
10.02083	211.0922	10.99262
10.02917	211.2638	10.99244
10.0375	211.4312	10.99228
10.04583	211.5988	10.9921
10.05417	211.7674	10.99196
10.0625	211.939	10.99185
10.07083	212.1121	10.99177
10.07917	212.2792	10.99159
10.0875	212.4455	10.99146
10.09583	212.6158	10.9913
10.10417	212.7858	10.99114
10.1125	212.9578	10.99096
10.12083	213.1236	10.99078
10.12917	213.2944	10.99061
10.1375	213.4642	10.99045
10.14583	213.6353	10.99028
10.15417	213.8047	10.9901
10.1625	213.9742	10.98993
10.17083	214.1452	10.98978
10.17917	214.3138	10.98968
10.1875	214.4813	10.98951
10.19583	214.6506	10.98936
10.20417	214.8209	10.98923
10.2125	214.9912	10.98907
10.22083	215.1594	10.98892
10.22917	215.328	10.98876
10.2375	215.4991	10.9886
10.24583	215.6668	10.98845
10.25417	215.8384	10.98829
10.2625	216.0076	10.9881
10.27083	216.1761	10.98798
10.27917	216.346	10.98776
10.2875	216.5167	10.98759
10.29583	216.6876	10.98749
10.30417	216.8554	10.9873
10.3125	217.0274	10.98714
10.32083	217.1964	10.98701
10.32917	217.3655	10.98686
10.3375	217.5308	10.98672
10.34583	217.701	10.98659
10.35417	217.8715	10.98642
10.3625	218.04	10.98631
10.37083	218.21	10.98611
10.37917	218.3803	10.98596
10.3875	218.548	10.9858
10.39583	218.7175	10.98563
10.40417	218.8872	10.98545
10.4125	219.0572	10.98528
10.42083	219.2265	10.98512
10.42917	219.3979	10.98493
10.4375	219.5653	10.98477
10.44583	219.734	10.98462
10.45417	219.9068	10.9845
10.4625	220.0738	10.98433
10.47083	220.2444	10.98418
10.47917	220.4168	10.984
10.4875	220.5824	10.98383
10.49584	220.7515	10.98367
10.50416	220.9218	10.98347
10.5125	221.092	10.9833
10.52083	221.2634	10.9831
10.52916	221.4271	10.98295
10.5375	221.598	10.9828
10.54584	221.768	10.98258
10.55417	221.9393	10.98244
10.5625	222.1063	10.9823
10.57083	222.2742	10.98216
10.57916	222.4437	10.982
10.5875	222.6154	10.98184
10.59584	222.7867	10.98165
10.60417	222.9531	10.98153
10.6125	223.1216	10.98134
10.62084	223.293	10.98114
10.62916	223.46	10.98096
10.6375	223.6289	10.98075
10.64583	223.7988	10.98061
10.65416	223.9658	10.98037
10.6625	224.1358	10.98018
10.67084	224.3066	10.98002
10.67917	224.4765	10.97989
10.6875	224.6459	10.97966
10.69583	224.8144	10.97952
10.70416	224.9875	10.97937
10.7125	225.1524	10.97924
10.72084	225.3207	10.9791
10.72917	225.4923	10.97894
10.7375	225.6638	10.97882
10.74584	225.8317	10.97866
10.75416	226.002	10.97846
10.7625	226.1708	10.97828
10.77083	226.339	10.97809
10.77916	226.5072	10.97788
10.7875	226.6774	10.97772
10.79584	226.8448	10.97748
10.80417	227.0164	10.97728
10.8125	227.1861	10.97704
10.82083	227.3526	10.97684
10.82916	227.5237	10.97661
10.8375	227.6935	10.97643
10.84584	227.8612	10.97624
10.85417	228.032	10.97605
10.8625	228.1998	10.97582
10.87084	228.3674	10.97557
10.87916	228.541	10.97539
10.8875	228.7086	10.9752
10.89583	228.877	10.97502
10.90416	229.045	10.97478
10.9125	229.2178	10.97456
10.92084	229.385	10.97434
10.92917	229.5542	10.97415
10.9375	229.7244	10.97401
10.94583	229.8932	10.97384
10.95416	230.0596	10.97369
10.9625	230.2312	10.97355
10.97084	230.4001	10.97343
10.97917	230.5718	10.9733
10.9875	230.7361	10.97318
10.99584	230.9083	10.97308
11.00416	231.0768	10.97295
11.0125	231.2473	10.9728
11.02083	231.4142	10.97261
11.02916	231.586	10.97242
11.0375	231.7544	10.97224
11.04584	231.923	10.97201
11.05417	232.0902	10.97176
11.0625	232.2619	10.9715
11.07083	232.4303	10.97132
11.07916	232.5984	10.9711
11.0875	232.7699	10.97088
11.09584	232.9372	10.97065
11.10417	233.1035	10.97044
11.1125	233.2716	10.97026
11.12084	233.4454	10.97007
11.12916	233.6141	10.9699
11.1375	233.784	10.96973
11.14583	233.9533	10.96954
11.15416	234.1202	10.96935
11.1625	234.2911	10.96917
11.17084	234.4586	10.96898
11.17917	234.6308	10.9688
11.1875	234.798	10.96861
11.19583	234.9636	10.96841
11.20416	235.1372	10.96819
11.2125	235.3037	10.96799
11.22084	235.4729	10.96778
11.22917	235.6414	10.96759
11.2375	235.8096	10.96737
11.24584	235.9824	10.96714
11.25416	236.1486	10.96694
11.2625	236.3195	10.9667
11.27083	236.4875	10.96648
11.27916	236.6536	10.96628
11.2875	236.8248	10.96606
11.29584	236.9945	10.96586
11.30417	237.1636	10.96565
11.3125	237.331	10.96542
11.32083	237.4998	10.9652
11.32916	237.6681	10.96496
11.3375	237.8371	10.96469
11.34584	238.0054	10.96449
11.35417	238.1736	10.9643
11.3625	238.3448	10.96403
11.37084	238.5152	10.96379
11.37916	238.6818	10.96354
11.3875	238.8506	10.96332
11.39583	239.0202	10.96311
11.40416	239.191	10.96293
11.4125	239.3566	10.96275
11.42084	239.5273	10.96259
11.42917	239.6992	10.96239
11.4375	239.8634	10.96214
11.44583	240.0332	10.96198
11.45416	240.2024	10.96179
11.4625	240.3707	10.96158
11.47084	240.5451	10.96138
11.47917	240.7075	10.9612
11.4875	240.8784	10.96098
11.49584	241.0456	10.96073
11.50416	241.2153	10.96052
11.5125	241.3834	10.9603
11.52083	241.5515	10.96008
11.52916	241.7211	10.95985
11.5375	241.8884	10.95962
11.54584	242.0672	10.95938
11.55417	242.2392	10.95913
11.5625	242.4083	10.95888
11.57083	242.5682	10.9586
11.57916	242.732	10.95837
11.5875	242.9033	10.95813
11.59584	243.0713	10.95792
11.60417	243.2512	10.95769
11.6125	243.4186	10.95745
11.62084	243.588	10.95722
11.62916	243.76	10.95698
11.6375	243.9257	10.95676
11.64583	244.0957	10.95652
11.65416	244.2623	10.95631
11.6625	244.4298	10.95609
11.67084	244.5965	10.95587
11.67917	244.7676	10.95561
11.6875	244.9378	10.95537
11.69583	245.1056	10.95506
11.70416	245.2691	10.95482
11.7125	245.4319	10.95457
11.72084	245.6016	10.95434
11.72917	245.77	10.95412
11.7375	245.9385	10.95386
11.74584	246.1056	10.95358
11.75416	246.2762	10.95333
11.7625	246.4426	10.9531
11.77083	246.6119	10.95287
11.77916	246.782	10.9527
11.7875	246.9518	10.95243
11.79584	247.1186	10.9522
11.80417	247.2872	10.95195
11.8125	247.4554	10.9517
11.82083	247.6223	10.95147
11.82916	247.7927	10.95124
11.8375	247.961	10.951
11.84584	248.1307	10.95074
11.85417	248.2984	10.95049
11.8625	248.4674	10.95026
11.87084	248.6361	10.95002
11.87916	248.8035	10.94979
11.8875	248.9719	10.94946
11.89583	249.142	10.94919
11.90416	249.3076	10.94897
11.9125	249.4786	10.94868
11.92084	249.6468	10.9484
11.92917	249.8176	10.94811
11.9375	249.9951	10.94784
11.94583	250.1613	10.94757
11.95416	250.3278	10.94731
11.9625	250.4986	10.94706
11.97084	250.6673	10.94686
11.97917	250.8344	10.94659
11.9875	251.0031	10.94628
11.99584	251.1734	10.94604
12.00416	251.3373	10.9458
12.0125	251.5081	10.94557
12.02083	251.6694	10.94534
12.02916	251.8358	10.94509
12.0375	252.004	10.94484
12.04584	252.1724	10.94456
12.05417	252.34	10.9443
12.0625	252.5086	10.94406
12.07083	252.6778	10.9438
12.07916	252.8433	10.94355
12.0875	253.0132	10.94329
12.09584	253.1822	10.94296
12.10417	253.3498	10.94268
12.1125	253.5202	10.94236
12.12084	253.6864	10.94206
12.12916	253.8568	10.94178
12.1375	254.022	10.94149
12.14583	254.1922	10.94122
12.15416	254.361	10.94095
12.1625	254.5278	10.94068
12.17084	254.6963	10.94042
12.17917	254.866	10.94018
12.1875	255.0337	10.93992
12.19583	255.2013	10.93968
12.20416	255.3701	10.93944
12.2125	255.5362	10.93918
12.22084	255.7033	10.93891
12.22917	255.8739	10.93864
12.2375	256.0424	10.93836
12.24584	256.2082	10.93809
12.25416	256.386	10.93779
12.2625	256.5544	10.93753
12.27083	256.7128	10.93722
12.27916	256.8832	10.93695
12.2875	257.0518	10.93666
12.29584	257.2234	10.93638
12.30417	257.3879	10.9361
12.3125	257.5566	10.93581
12.32083	257.725	10.93553
12.32916	257.8925	10.93522
12.3375	258.0607	10.93496
12.34584	258.2295	10.93466
12.35417	258.3976	10.93438
12.3625	258.5654	10.9341
12.37084	258.7348	10.93382
12.37916	258.902	10.93353
12.3875	259.07	10.93324
12.39583	259.2383	10.93297
12.40416	259.4076	10.93269
12.4125	259.5771	10.93241
12.42084	259.7444	10.9321
12.42917	259.9102	10.9318
12.4375	260.0802	10.93151
12.44583	260.2496	10.93119
12.45416	260.4247	10.93088
12.4625	260.584	10.93058
12.47084	260.7532	10.93028
12.47917	260.9204	10.92994
12.4875	261.0902	10.92964
12.49584	261.2576	10.92934
12.50416	261.425	10.92905
12.5125	261.5929	10.92878
12.52083	261.7617	10.92852
12.52916	261.9291	10.92824
12.5375	262.098	10.92797
12.54584	262.2654	10.92769
12.55417	262.4326	10.92742
12.5625	262.6015	10.92716
12.57083	262.7693	10.92687
12.57916	262.9374	10.92654
12.5875	263.105	10.92624
12.59584	263.2754	10.9259
12.60417	263.442	10.92554
12.6125	263.6086	10.9252
12.62084	263.7788	10.92489
12.62916	263.9456	10.92457
12.6375	264.1128	10.92423
12.64583	264.2797	10.9239
12.65416	264.4504	10.9236
12.6625	264.618	10.92329
12.67084	264.7854	10.92297
12.67917	264.9515	10.92268
12.6875	265.1225	10.92241
12.69583	265.2914	10.92212
12.70416	265.4587	10.9218
12.7125	265.6274	10.92149
12.72084	265.7944	10.92118
12.72917	265.9625	10.92085
12.7375	266.1312	10.92051
12.74584	266.301	10.92021
12.75416	266.4666	10.91986
12.7625	266.6359	10.91953
12.77083	266.7994	10.91921
12.77916	266.97	10.91888
12.7875	267.1382	10.91854
12.79584	267.3072	10.9182
12.80417	267.4755	10.91784
12.8125	267.6424	10.91753
12.82083	267.8095	10.91721
12.82916	267.9785	10.91686
12.8375	268.1472	10.91655
12.84584	268.316	10.91622
12.85417	268.4819	10.91587
12.8625	268.6522	10.91555
12.87083	268.8166	10.91524
12.87917	268.9865	10.91493
12.8875	269.1565	10.91462
12.89583	269.3222	10.91428
12.90416	269.4925	10.91394
12.9125	269.659	10.91363
12.92084	269.827	10.91334
12.92917	269.9942	10.91301
12.9375	270.1617	10.91268
12.94583	270.332	10.91232
12.95416	270.5002	10.91196
12.9625	270.6673	10.91159
12.97084	270.8372	10.91121
12.97917	271.0016	10.91082
12.9875	271.1686	10.91046
12.99583	271.3372	10.9101
13.00417	271.5068	10.90974
13.0125	271.6783	10.9094
13.02083	271.8519	10.90908
13.02916	272.0193	10.90876
13.0375	272.1841	10.90846
13.04584	272.3545	10.90812
13.05417	272.5216	10.90772
13.0625	272.6901	10.90741
13.07083	272.857	10.90705
13.07916	273.0258	10.90668
13.0875	273.1934	10.9063
13.09584	273.36	10.90594
13.10417	273.5302	10.90551
13.1125	273.698	10.90514
13.12083	273.8572	10.90478
13.12917	274.0203	10.90446
13.1375	274.1885	10.90418
13.14583	274.3555	10.90384
13.15416	274.528	10.90354
13.1625	274.6888	10.90325
13.17084	274.8578	10.90291
13.17917	275.0252	10.90255
13.1875	275.195	10.90226
13.19583	275.3628	10.90188
13.20416	275.5293	10.90152
13.2125	275.7	10.90113
13.22084	275.8694	10.9008
13.22917	276.0364	10.90047
13.2375	276.2022	10.90012
13.24583	276.3693	10.89972
13.25417	276.54	10.89937
13.2625	276.7074	10.899
13.27083	276.8754	10.89862
13.27916	277.0445	10.89828
13.2875	277.209	10.89792
13.29584	277.3776	10.89754
13.30417	277.5458	10.89712
13.3125	277.7124	10.8967
13.32083	277.8818	10.89628
13.32916	278.0494	10.89587
13.3375	278.2161	10.89545
13.34584	278.3842	10.89504
13.35417	278.5508	10.89463
13.3625	278.7221	10.89423
13.37083	278.8873	10.89384
13.37917	279.0528	10.89348
13.3875	279.2222	10.89312
13.39583	279.3899	10.89275
13.40416	279.5598	10.89241
13.4125	279.7272	10.89207
13.42084	279.8937	10.89173
13.42917	280.0609	10.89137
13.4375	280.2303	10.89096
13.44583	280.3978	10.8906
13.45416	280.5668	10.89016
13.4625	280.7331	10.88975
13.47084	280.9015	10.88935
13.47917	281.0696	10.88898
13.4875	281.24	10.88856
13.49583	281.4044	10.88817
13.50417	281.5734	10.88777
13.5125	281.7418	10.88739
13.52083	281.9085	10.88705
13.52916	282.0759	10.88663
13.5375	282.2428	10.88628
13.54584	282.4106	10.88592
13.55417	282.5798	10.88553
13.5625	282.7484	10.88517
13.57083	282.9167	10.88476
13.57916	283.087	10.88436
13.5875	283.2549	10.88397
13.59584	283.4205	10.88358
13.60417	283.5872	10.88319
13.6125	283.7556	10.88282
13.62083	283.9228	10.88243
13.62917	284.0887	10.88204
13.6375	284.2584	10.88164
13.64583	284.4278	10.88119
13.65416	284.5933	10.88081
13.6625	284.7619	10.88043
13.67084	284.934	10.88001
13.67917	285.0972	10.87962
13.6875	285.2662	10.87926
13.69583	285.4303	10.87883
13.70416	285.5998	10.87838
13.7125	285.7696	10.87794
13.72084	285.942	10.87753
13.72917	286.1088	10.8771
13.7375	286.2731	10.87667
13.74583	286.4426	10.87623
13.75417	286.6082	10.87581
13.7625	286.7788	10.87538
13.77083	286.9456	10.87487
13.77916	287.1114	10.87443
13.7875	287.2785	10.87401
13.79584	287.448	10.8736
13.80417	287.6168	10.87317
13.8125	287.7836	10.87274
13.82083	287.9522	10.87229
13.82916	288.121	10.87184
13.8375	288.2893	10.8714
13.84584	288.456	10.87094
13.85417	288.6229	10.87053
13.8625	288.7924	10.8701
13.87083	288.9632	10.86967
13.87917	289.1331	10.86925
13.8875	289.2946	10.86881
13.89583	289.4621	10.86839
13.90416	289.6306	10.86798
13.9125	289.7966	10.86752
13.92084	289.9664	10.86711
13.92917	290.1334	10.86668
13.9375	290.3006	10.86623
13.94583	290.4692	10.8658
13.95416	290.6359	10.86536
13.9625	290.805	10.8649
13.97084	290.9728	10.86439
13.97917	291.1375	10.86392
13.9875	291.3086	10.86345
13.99583	291.4746	10.86299
14.00417	291.6412	10.86248
14.0125	291.8098	10.86202
14.02083	291.9785	10.86152
14.02916	292.1455	10.86105
14.0375	292.3142	10.86059
14.04584	292.482	10.86012
14.05417	292.65	10.85969
14.0625	292.8139	10.85922
14.07083	292.9826	10.85873
14.07916	293.1523	10.85827
14.0875	293.3183	10.8578
14.09584	293.4863	10.85734
14.10417	293.655	10.85688
14.1125	293.8213	10.8564
14.12083	293.9875	10.85587
14.12917	294.1576	10.85537
14.1375	294.3248	10.85485
14.14583	294.491	10.85433
14.15416	294.659	10.8538
14.1625	294.8265	10.85328
14.17084	294.9932	10.85276
14.17917	295.1606	10.85223
14.1875	295.3285	10.85172
14.19583	295.4975	10.85127
14.20416	295.6658	10.85076
14.2125	295.8323	10.85026
14.22084	296	10.8498
14.22917	296.1674	10.84934
14.2375	296.3374	10.84889
14.24583	296.5046	10.84844
14.25417	296.67	10.84799
14.2625	296.8398	10.84755
14.27083	297.0063	10.84706
14.27916	297.1738	10.84649
14.2875	297.3436	10.84602
14.29584	297.5101	10.84551
14.30417	297.6775	10.84499
14.3125	297.845	10.84446
14.32083	298.0141	10.84397
14.32916	298.1797	10.84348
14.3375	298.3491	10.84293
14.34584	298.5185	10.84238
14.35417	298.6856	10.84189
14.3625	298.8534	10.84139
14.37083	299.0225	10.8409
14.37917	299.1867	10.84042
14.3875	299.3557	10.8399
14.39583	299.5236	10.8394
14.40416	299.6918	10.83886
14.4125	299.8591	10.83831
14.42084	300.0276	10.83778
14.42917	300.1962	10.83722
14.4375	300.3623	10.83656
14.44583	300.5322	10.83599
14.45416	300.6984	10.83539
14.4625	300.8646	10.83479
14.47084	301.031	10.83424
14.47917	301.2014	10.83371
14.4875	301.37	10.83313
14.49583	301.538	10.83253
14.50417	301.704	10.8319
14.5125	301.8719	10.83139
14.52083	302.0416	10.83087
14.52916	302.2075	10.83031
14.5375	302.3763	10.82976
14.54584	302.5425	10.82915
14.55417	302.715	10.82859
14.5625	302.8794	10.82798
14.57083	303.0493	10.82742
14.57916	303.2161	10.82689
14.5875	303.3848	10.8264
14.59584	303.5522	10.82584
14.60417	303.719	10.82527
14.6125	303.89	10.82474
14.62083	304.0558	10.82418
14.62917	304.2226	10.82364
14.6375	304.3904	10.82301
14.64583	304.5572	10.8224
14.65416	304.7265	10.82181
14.6625	304.8928	10.82119
14.67084	305.0608	10.82055
14.67917	305.2272	10.81988
14.6875	305.3987	10.81926
14.69583	305.5652	10.81858
14.70416	305.7331	10.81792
14.7125	305.8985	10.8173
14.72084	306.0708	10.81672
14.72917	306.24	10.81611
14.7375	306.4025	10.81548
14.74583	306.5706	10.81488
14.75417	306.7363	10.81426
14.7625	306.9046	10.81367
14.77083	307.0725	10.81307
14.77916	307.2406	10.81248
14.7875	307.4062	10.81186
14.79584	307.5756	10.81123
14.80417	307.7434	10.8106
14.8125	307.9092	10.80996
14.82083	308.0796	10.80933
14.82916	308.2475	10.80867
14.8375	308.4144	10.80804
14.84584	308.5806	10.80738
14.85417	308.7482	10.80673
14.8625	308.9163	10.80604
14.87083	309.0836	10.8054
14.87917	309.2498	10.80473
14.8875	309.4167	10.80405
14.89583	309.5877	10.80336
14.90416	309.755	10.80264
14.9125	309.921	10.80196
14.92084	310.089	10.80128
14.92917	310.2599	10.8006
14.9375	310.4236	10.79991
14.94583	310.593	10.79917
14.95416	310.7615	10.79847
14.9625	310.9297	10.79778
14.97084	311.0967	10.79705
14.97917	311.263	10.79633
14.9875	311.432	10.79562
14.99583	311.5988	10.79492
15.00417	311.7656	10.79423
15.0125	311.9362	10.79349
15.02083	312.1022	10.79278
15.02916	312.2688	10.79215
15.0375	312.4392	10.79144
15.04584	312.6051	10.7907
15.05417	312.7738	10.79
15.0625	312.9405	10.78929
15.07083	313.107	10.78859
15.07916	313.2761	10.78783
15.0875	313.4444	10.78704
15.09584	313.6103	10.78628
15.10417	313.777	10.78551
15.1125	313.9446	10.78471
15.12083	314.113	10.78393
15.12917	314.28	10.78316
15.1375	314.4494	10.78239
15.14583	314.6179	10.78164
15.15416	314.7854	10.78084
15.1625	314.9518	10.78003
15.17084	315.1184	10.77928
15.17917	315.2856	10.77852
15.1875	315.4547	10.77774
15.19583	315.6244	10.77697
15.20416	315.7886	10.7762
15.2125	315.9598	10.77541
15.22084	316.1268	10.77458
15.22917	316.294	10.77374
15.2375	316.4608	10.77292
15.24583	316.6296	10.77214
15.25417	316.7955	10.77131
15.2625	316.9637	10.77048
15.27083	317.1336	10.76966
15.27916	317.3008	10.76884
15.2875	317.4698	10.76797
15.29584	317.6338	10.76713
15.30417	317.8022	10.76631
15.3125	317.9698	10.76548
15.32083	318.1384	10.76463
15.32916	318.3076	10.76374
15.3375	318.4722	10.76287
15.34584	318.641	10.76198
15.35417	318.8106	10.76108
15.3625	318.9759	10.76019
15.37083	319.1463	10.75932
15.37917	319.3136	10.75844
15.3875	319.4816	10.7576
15.39583	319.6501	10.75671
15.40416	319.8148	10.75581
15.4125	319.9852	10.75492
15.42084	320.1496	10.754
15.42917	320.3188	10.75308
15.4375	320.4878	10.75214
15.44583	320.6546	10.75119
15.45416	320.8235	10.75025
15.4625	320.992	10.74928
15.47084	321.1582	10.74824
15.47917	321.3274	10.74726
15.4875	321.4924	10.74625
15.49583	321.6594	10.74531
15.50417	321.829	10.74434
15.5125	321.9978	10.74336
15.52083	322.1631	10.74242
15.52916	322.3303	10.74147
15.5375	322.5007	10.74049
15.54584	322.6682	10.73953
15.55417	322.832	10.73855
15.5625	323.0014	10.73758
15.57083	323.1697	10.73661
15.57916	323.3374	10.73559
15.5875	323.5068	10.73458
15.59584	323.6756	10.73353
15.60417	323.8409	10.73248
15.6125	324.0095	10.73146
15.62083	324.1758	10.73042
15.62917	324.3429	10.72936
15.6375	324.5112	10.72833
15.64583	324.6775	10.72732
15.65416	324.848	10.7263
15.6625	325.0136	10.72527
15.67084	325.1806	10.72425
15.67917	325.3548	10.72322
15.6875	325.5185	10.7222
15.69583	325.6829	10.72111
15.70416	325.8506	10.72004
15.7125	326.0168	10.71896
15.72084	326.187	10.71786
15.72917	326.3544	10.71672
15.7375	326.5216	10.7156
15.74583	326.689	10.71446
15.75417	326.8584	10.71332
15.7625	327.0272	10.71219
15.77083	327.196	10.71105
15.77916	327.3615	10.70991
15.7875	327.527	10.70873
15.79584	327.6931	10.70762
15.80417	327.8626	10.70645
15.8125	328.0296	10.70526
15.82083	328.1966	10.70408
15.82916	328.364	10.7029
15.8375	328.5332	10.70169
15.84584	328.7	10.70048
15.85417	328.8675	10.69926
15.8625	329.0355	10.69803
15.87083	329.2014	10.6968
15.87917	329.3706	10.69553
15.8875	329.5385	10.69427
15.89583	329.7058	10.69306
15.90416	329.8732	10.69182
15.9125	330.0396	10.69056
15.92084	330.2072	10.68934
15.92917	330.3757	10.6881
15.9375	330.5446	10.68686
15.94583	330.71	10.68562
15.95416	330.8778	10.68438
15.9625	331.0438	10.68311
15.97084	331.213	10.68186
15.97917	331.3794	10.68051
15.9875	331.5466	10.67918
15.99583	331.7153	10.67787
16.00417	331.8825	10.67657
16.0125	332.0472	10.67524
16.02084	332.2168	10.67386
16.02917	332.384	10.67249
16.0375	332.5497	10.67113
16.04584	332.7212	10.66978
16.05417	332.888	10.6684
16.0625	333.0558	10.66701
16.07083	333.2224	10.66561
16.07916	333.3902	10.66421
16.0875	333.5661	10.66278
16.09583	333.7354	10.66131
16.10416	333.8977	10.6599
16.1125	334.0615	10.65848
16.12083	334.2276	10.65704
16.12917	334.3976	10.65559
16.1375	334.5617	10.65417
16.14584	334.7322	10.65277
16.15417	334.8997	10.65134
16.1625	335.0672	10.64986
16.17084	335.2344	10.64838
16.17917	335.4026	10.64692
16.1875	335.5685	10.64542
16.19583	335.737	10.6439
16.20416	335.904	10.64236
16.2125	336.0724	10.64084
16.22083	336.2414	10.6393
16.22916	336.4074	10.63774
16.2375	336.5742	10.63618
16.24583	336.7391	10.63464
16.25417	336.907	10.63305
16.2625	337.0768	10.63145
16.27084	337.2432	10.62984
16.27917	337.4128	10.62826
16.2875	337.5813	10.62665
16.29584	337.7458	10.62502
16.30417	337.9148	10.62337
16.3125	338.0825	10.62173
16.32083	338.2484	10.62008
16.32916	338.4174	10.61844
16.3375	338.5855	10.61677
16.34583	338.7522	10.61512
16.35416	338.921	10.61345
16.3625	339.0882	10.61173
16.37083	339.2553	10.61003
16.37917	339.4253	10.60835
16.3875	339.5915	10.60665
16.39584	339.7586	10.60494
16.40417	339.9375	10.60319
16.4125	340.103	10.60144
16.42084	340.2705	10.5997
16.42917	340.4368	10.59792
16.4375	340.6053	10.59619
16.44583	340.7731	10.59445
16.45416	340.9406	10.59267
16.4625	341.1087	10.59086
16.47083	341.2782	10.58904
16.47916	341.443	10.58718
16.4875	341.6122	10.58531
16.49583	341.7795	10.58344
16.50417	341.9478	10.58156
16.5125	342.1136	10.57972
16.52084	342.2813	10.57784
16.52917	342.4508	10.57595
16.5375	342.6075	10.574
16.54584	342.7774	10.57209
16.55417	342.9418	10.5702
16.5625	343.1101	10.56826
16.57083	343.2777	10.56636
16.57916	343.4472	10.56446
16.5875	343.6134	10.56257
16.59583	343.7808	10.56064
16.60416	343.9467	10.55869
16.6125	344.1148	10.55678
16.62083	344.2807	10.55488
16.62917	344.4504	10.5529
16.6375	344.6179	10.55082
16.64584	344.7832	10.54887
16.65417	344.9516	10.54687
16.6625	345.1191	10.54486
16.67084	345.287	10.54282
16.67917	345.455	10.54074
16.6875	345.6205	10.53867
16.69583	345.7891	10.53657
16.70416	345.9546	10.5345
16.7125	346.1271	10.53244
16.72083	346.2911	10.5304
16.72916	346.4588	10.52825
16.7375	346.6288	10.52612
16.74583	346.7938	10.52395
16.75417	346.961	10.52176
16.7625	347.1294	10.51959
16.77084	347.2956	10.51742
16.77917	347.463	10.51524
16.7875	347.6324	10.51304
16.79584	347.7992	10.51081
16.80417	347.968	10.50858
16.8125	348.1362	10.50636
16.82083	348.3037	10.50412
16.82916	348.4717	10.5019
16.8375	348.6389	10.49967
16.84583	348.81	10.49744
16.85416	348.9745	10.49514
16.8625	349.1407	10.49284
16.87083	349.3094	10.49052
16.87917	349.4817	10.4882
16.8875	349.6531	10.4859
16.89584	349.821	10.48357
16.90417	349.988	10.48124
16.9125	350.1567	10.47886
16.92084	350.3209	10.47648
16.92917	350.4827	10.47408
16.9375	350.6464	10.4717
16.94583	350.8168	10.46931
16.95416	350.9813	10.46692
16.9625	351.1488	10.46448
16.97083	351.316	10.46203
16.97916	351.484	10.45961
16.9875	351.6502	10.45712
16.99583	351.817	10.45466
17.00417	351.9817	10.45221
17.0125	352.1481	10.44974
17.02084	352.3213	10.44727
17.02917	352.4956	10.44476
17.0375	352.6622	10.44223
17.04584	352.8322	10.43975
17.05417	352.9998	10.43723
17.0625	353.1688	10.43466
17.07083	353.3347	10.43213
17.07916	353.5033	10.42959
17.0875	353.6676	10.427
17.09583	353.8374	10.42436
17.10416	354.0024	10.42173
17.1125	354.1704	10.41911
17.12083	354.3372	10.41648
17.12917	354.4972	10.41381
17.1375	354.6602	10.41116
17.14584	354.83	10.40849
17.15417	354.9968	10.40579
17.1625	355.1638	10.40309
17.17084	355.3285	10.40039
17.17917	355.4952	10.3977
17.1875	355.6616	10.39497
17.19583	355.8285	10.39225
17.20416	355.9935	10.38949
17.2125	356.163	10.38672
17.22083	356.3302	10.38394
17.22916	356.5	10.38116
17.2375	356.666	10.37839
17.24583	356.8328	10.37561
17.25417	357.0004	10.37279
17.2625	357.1697	10.36994
17.27084	357.3387	10.36707
17.27917	357.5045	10.36418
17.2875	357.6716	10.3613
17.29584	357.8389	10.35839
17.30417	358.0074	10.35548
17.3125	358.1712	10.35257
17.32083	358.3414	10.34961
17.32916	358.5058	10.34665
17.3375	358.6745	10.34367
17.34583	358.8388	10.34072
17.35416	359.0062	10.33774
17.3625	359.1742	10.33477
17.37083	359.3426	10.33177
17.37917	359.5066	10.32877
17.3875	359.6766	10.32575
17.39584	359.8435	10.32271
17.40417	360.0126	10.31965
17.4125	360.178	10.31649
17.42084	360.3486	10.31336
17.42917	360.5144	10.3102
17.4375	360.6826	10.30706
17.44583	360.8487	10.30392
17.45416	361.0167	10.30078
17.4625	361.1844	10.29764
17.47083	361.3484	10.29445
17.47916	361.5183	10.29128
17.4875	361.6846	10.2881
17.49583	361.851	10.28501
17.50417	362.015	10.28184
17.5125	362.1828	10.27865
17.52084	362.3476	10.27541
17.52917	362.516	10.27212
17.5375	362.6832	10.26883
17.54584	362.8519	10.26554
17.55417	363.0187	10.26222
17.5625	363.1872	10.25888
17.57083	363.3569	10.25554
17.57916	363.5242	10.25214
17.5875	363.6918	10.24879
17.59583	363.862	10.24542
17.60416	364.028	10.24204
17.6125	364.1959	10.23867
17.62083	364.3695	10.23524
17.62917	364.5402	10.23179
17.6375	364.7035	10.22835
17.64584	364.875	10.22486
17.65417	365.0412	10.22137
17.6625	365.2075	10.21786
17.67084	365.3759	10.21436
17.67917	365.5432	10.21079
17.6875	365.7054	10.20718
17.69583	365.8713	10.20359
17.70416	366.0336	10.19999
17.7125	366.2008	10.1964
17.72083	366.3562	10.19279
17.72916	366.5194	10.18916
17.7375	366.6869	10.18552
17.74583	366.8562	10.18183
17.75417	367.0241	10.17812
17.7625	367.1937	10.17447
17.77084	367.3574	10.17077
17.77917	367.5266	10.16714
17.7875	367.6934	10.16343
17.79584	367.8621	10.15966
17.80417	368.0269	10.15589
17.8125	368.1918	10.15212
17.82083	368.3609	10.14833
17.82916	368.5256	10.1445
17.8375	368.6938	10.14066
17.84583	368.8597	10.13682
17.85416	369.027	10.13298
17.8625	369.1906	10.12902
17.87083	369.3561	10.1251
17.87917	369.5238	10.12119
17.8875	369.6894	10.11728
17.89584	369.8609	10.11333
17.90417	370.0262	10.10939
17.9125	370.19	10.10542
17.92084	370.3613	10.10144
17.92917	370.5288	10.09739
17.9375	370.6974	10.09334
17.94583	370.8662	10.08928
17.95416	371.0329	10.08522
17.9625	371.2038	10.08116
17.97083	371.372	10.07702
17.97916	371.5366	10.0729
17.9875	371.705	10.06871
17.99583	371.8736	10.06453
18.00417	372.0385	10.0604
18.0125	372.2037	10.05623
18.02084	372.3724	10.052
18.02917	372.5382	10.04776
18.0375	372.7057	10.0435
18.04584	372.8708	10.0392
18.05417	373.0372	10.03489
18.0625	373.2036	10.03055
18.07083	373.3671	10.0262
18.07916	373.5328	10.02184
18.0875	373.693	10.01742
18.09583	373.8602	10.01299
18.10416	374.0246	10.00861
18.1125	374.1914	10.00415
18.12083	374.3568	9.999634
18.12917	374.5235	9.995156
18.1375	374.6922	9.990674
18.14584	374.8596	9.986156
18.15417	375.031	9.981625
18.1625	375.1968	9.977111
18.17084	375.3668	9.972562
18.17917	375.5362	9.968004
18.1875	375.7034	9.963398
18.19583	375.87	9.958801
18.20416	376.0356	9.954194
18.2125	376.2047	9.949545
18.22083	376.3682	9.944879
18.22916	376.5341	9.940187
18.2375	376.7027	9.935509
18.24583	376.8643	9.930742
18.25417	377.0316	9.925937
18.2625	377.1972	9.921125
18.27084	377.3584	9.916291
18.27917	377.5243	9.911402
18.2875	377.6867	9.906512
18.29584	377.8518	9.901602
18.30417	378.0178	9.896681
18.3125	378.1847	9.891755
18.32083	378.3526	9.886793
18.32916	378.5168	9.881812
18.3375	378.6828	9.876789
18.34583	378.8512	9.871799
18.35416	379.0183	9.866757
18.3625	379.1858	9.861765
18.37083	379.3494	9.856701
18.37917	379.5154	9.851612
18.3875	379.6835	9.846469
18.39584	379.8484	9.841328
18.40417	380.0139	9.836141
18.4125	380.18	9.830941
18.42084	380.3464	9.82575
18.42917	380.512	9.820491
18.4375	380.682	9.815254
18.44583	380.8457	9.809958
18.45416	381.0116	9.804636
18.4625	381.1792	9.799269
18.47083	381.3438	9.793918
18.47916	381.5109	9.788512
18.4875	381.6731	9.783118
18.49583	381.8394	9.77771
18.50417	382.0052	9.77232
18.5125	382.1715	9.76692
18.52084	382.3362	9.761461
18.52917	382.5034	9.755952
18.5375	382.6706	9.750437
18.54584	382.8392	9.744928
18.55417	383.0012	9.739364
18.5625	383.17	9.733784
18.57083	383.3364	9.728149
18.57916	383.5013	9.722501
18.5875	383.6664	9.71678
18.59583	383.8315	9.711044
18.60416	383.9978	9.705295
18.6125	384.1646	9.699541
18.62083	384.3301	9.693781
18.62917	384.4956	9.687975
18.6375	384.6612	9.682132
18.64584	384.8257	9.676269
18.65417	384.9906	9.670371
18.6625	385.1565	9.664432
18.67084	385.3168	9.658484
18.67917	385.475	9.652482
18.6875	385.6353	9.646444
18.69583	385.7956	9.640412
18.70416	385.9565	9.63436
18.7125	386.1238	9.628264
18.72083	386.2912	9.622153
18.72916	386.4558	9.616024
18.7375	386.6218	9.609875
18.74583	386.7924	9.6037
18.75417	386.9576	9.597491
18.7625	387.1226	9.591272
18.77084	387.2912	9.585089
18.77917	387.4605	9.578775
18.7875	387.6287	9.572418
18.79584	387.797	9.566035
18.80417	387.9638	9.559592
18.8125	388.1286	9.553205
18.82083	388.2964	9.546766
18.82916	388.4633	9.540305
18.8375	388.6316	9.533822
18.84583	388.7957	9.52729
18.85416	388.9641	9.520686
18.8625	389.1291	9.514093
18.87083	389.2956	9.507476
18.87917	389.4596	9.500849
18.8875	389.6262	9.494201
18.89584	389.7917	9.487408
18.90417	389.9566	9.480613
18.9125	390.1297	9.473816
18.92084	390.2954	9.46695
18.92917	390.4556	9.460059
18.9375	390.6189	9.453139
18.94583	390.7828	9.446182
18.95416	390.9512	9.439184
18.9625	391.1172	9.432116
18.97083	391.2812	9.424988
18.97916	391.445	9.417843
18.9875	391.6037	9.41065
18.99583	391.7662	9.403378
19.00417	391.931	9.396059
19.0125	392.0926	9.388696
19.02084	392.2574	9.381299
19.02917	392.4244	9.373902
19.0375	392.5872	9.366481
19.04584	392.7514	9.359024
19.05417	392.9244	9.351571
19.0625	393.0906	9.344113
19.07083	393.2575	9.33665
19.07916	393.4201	9.329155
19.0875	393.585	9.321666
19.09583	393.751	9.314172
19.10416	393.9133	9.306616
19.1125	394.0752	9.299016
19.12083	394.2351	9.291401
19.12917	394.4016	9.283759
19.1375	394.5652	9.276074
19.14584	394.7318	9.268308
19.15417	394.8961	9.260484
19.1625	395.0598	9.252618
19.17084	395.2241	9.244695
19.17917	395.3904	9.236688
19.1875	395.5544	9.228634
19.19583	395.7212	9.22059
19.20416	395.8946	9.212489
19.2125	396.0553	9.204369
19.22083	396.2168	9.196215
19.22916	396.382	9.188048
19.2375	396.546	9.179897
19.24583	396.71	9.171699
19.25417	396.8752	9.163445
19.2625	397.0416	9.15515
19.27084	397.2053	9.14684
19.27917	397.3714	9.138424
19.2875	397.5328	9.129986
19.29584	397.701	9.121549
19.30417	397.8654	9.113078
19.3125	398.0291	9.104553
19.32083	398.1934	9.095929
19.32916	398.3606	9.087208
19.3375	398.5231	9.078528
19.34583	398.6896	9.069836
19.35416	398.8544	9.061141
19.3625	399.0206	9.052428
19.37083	399.1846	9.043694
19.37917	399.3464	9.034903
19.3875	399.513	9.026109
19.39584	399.6758	9.017268
19.40417	399.8428	9.008353
19.4125	400.0068	8.999434
19.42084	400.1702	8.990369
19.42917	400.3363	8.981306
19.4375	400.5012	8.972175
19.44583	400.6635	8.963026
19.45416	400.8294	8.953774
19.4625	400.9945	8.944458
19.47083	401.1596	8.935101
19.47916	401.3245	8.925712
19.4875	401.4887	8.916337
19.49583	401.6536	8.906922
19.50417	401.818	8.89752
19.5125	401.98	8.888124
19.52084	402.144	8.87865
19.52917	402.3094	8.869079
19.5375	402.4734	8.859476
19.54584	402.638	8.849828
19.55417	402.8046	8.840095
19.5625	402.969	8.830342
19.57083	403.1324	8.820494
19.57916	403.2959	8.810585
19.5875	403.4602	8.800599
19.59583	403.6227	8.790528
19.60416	403.7898	8.780447
19.6125	403.9542	8.770366
19.62083	404.1176	8.760259
19.62917	404.2825	8.750126
19.6375	404.4456	8.739916
19.64584	404.6082	8.729631
19.65417	404.7729	8.719334
19.6625	404.9369	8.708996
19.67084	405.1012	8.698632
19.67917	405.2646	8.688147
19.6875	405.4311	8.677606
19.69583	405.5923	8.666974
19.70416	405.7578	8.656303
19.7125	405.9207	8.645575
19.72083	406.0821	8.634836
19.72916	406.2475	8.624071
19.7375	406.4112	8.6133
19.74583	406.5762	8.602532
19.75417	406.7417	8.591785
19.7625	406.9038	8.580969
19.77084	407.0647	8.570126
19.77917	407.2314	8.55922
19.7875	407.3944	8.548144
19.79584	407.5603	8.536918
19.80417	407.7213	8.525731
19.8125	407.8835	8.514509
19.82083	408.0488	8.503204
19.82916	408.2141	8.49182
19.8375	408.3766	8.48038
19.84583	408.5407	8.468954
19.85416	408.7052	8.457403
19.8625	408.8653	8.445918
19.87083	409.0289	8.434461
19.87917	409.196	8.423019
19.8875	409.3594	8.41143
19.89584	409.521	8.399743
19.90417	409.6848	8.387994
19.9125	409.8462	8.37621
19.92084	410.0076	8.364266
19.92917	410.174	8.352155
19.9375	410.3358	8.340036
19.94583	410.496	8.32778
19.95416	410.6615	8.315538
19.9625	410.8227	8.30329
19.97083	410.9864	8.291022
19.97916	411.1505	8.278705
19.9875	411.3131	8.266328
19.99583	411.4766	8.253872
20.00417	411.6398	8.241398
20.0125	411.802	8.228914
20.02084	411.9652	8.216384
20.02917	412.1293	8.203814
20.0375	412.2891	8.191118
20.04584	412.4508	8.178316
20.05417	412.6164	8.165422
20.0625	412.7766	8.152498
20.07083	412.9408	8.139534
20.07916	413.1012	8.126507
20.0875	413.2654	8.113412
20.09583	413.427	8.1003
20.10416	413.5868	8.087124
20.1125	413.7504	8.073838
20.12083	413.911	8.0605
20.12917	414.0748	8.047112
20.1375	414.2364	8.033694
20.14584	414.3972	8.020147
20.15417	414.5587	8.006524
20.1625	414.7205	7.992832
20.17084	414.8846	7.979078
20.17917	415.0457	7.965219
20.1875	415.211	7.951225
20.19583	415.3725	7.93717
20.20416	415.5324	7.923074
20.2125	415.6922	7.908918
20.22083	415.858	7.894707
20.22916	416.0166	7.88056
20.2375	416.1826	7.866432
20.24583	416.3419	7.852282
20.25417	416.5049	7.838026
20.2625	416.6683	7.823715
20.27084	416.8304	7.809407
20.27917	416.9918	7.795026
20.2875	417.1545	7.780532
20.29584	417.3147	7.765978
20.30417	417.4762	7.751342
20.3125	417.6375	7.736497
20.32083	417.7984	7.721497
20.32916	417.9588	7.706436
20.3375	418.122	7.691421
20.34583	418.2838	7.676359
20.35416	418.4432	7.661148
20.3625	418.6065	7.64581
20.37083	418.766	7.630445
20.37917	418.9309	7.615069
20.3875	419.0894	7.599637
20.39584	419.2524	7.584197
20.40417	419.4138	7.568624
20.4125	419.5742	7.552881
20.42084	419.7354	7.536966
20.42917	419.8952	7.520989
20.4375	420.0597	7.505008
20.44583	420.2156	7.48906
20.45416	420.3748	7.47308
20.4625	420.537	7.457035
20.47083	420.7004	7.440882
20.47916	420.86	7.424618
20.4875	421.0184	7.408261
20.49583	421.1804	7.39182
20.50417	421.3394	7.375364
20.5125	421.5004	7.358837
20.52084	421.6603	7.342245
20.52917	421.8204	7.325582
20.5375	421.982	7.308741
20.54584	422.1425	7.291798
20.55417	422.3003	7.274842
20.5625	422.4654	7.257745
20.57083	422.6242	7.240636
20.57916	422.7887	7.223484
20.5875	422.954	7.206342
20.59583	423.115	7.189155
20.60416	423.2753	7.171869
20.6125	423.4344	7.154461
20.62083	423.591	7.13701
20.62917	423.748	7.119504
20.6375	423.9082	7.101952
20.64584	424.0697	7.08451
20.65417	424.2296	7.06705
20.6625	424.3916	7.049578
20.67084	424.5497	7.03188
20.67917	424.7121	7.014011
20.6875	424.8722	6.996028
20.69583	425.0299	6.977881
20.70416	425.1914	6.95968
20.7125	425.3506	6.94137
20.72083	425.5111	6.922986
20.72916	425.6679	6.904545
20.7375	425.8297	6.886109
20.74583	425.987	6.867688
20.75417	426.151	6.849258
20.7625	426.3108	6.830649
20.77084	426.47	6.811936
20.77917	426.6295	6.793222
20.7875	426.7896	6.774316
20.79584	426.9498	6.755166
20.80417	427.1075	6.735755
20.8125	427.2703	6.716196
20.82083	427.4382	6.696487
20.82916	427.5984	6.676706
20.8375	427.7594	6.657034
20.84583	427.9189	6.637644
20.85416	428.0817	6.618506
20.8625	428.2418	6.599422
20.87083	428.4027	6.580325
20.87917	428.564	6.561036
20.8875	428.724	6.541476
20.89584	428.8783	6.521627
20.90417	429.0366	6.501666
20.9125	429.1956	6.481498
20.92084	429.3586	6.460993
20.92917	429.5157	6.44023
20.9375	429.6799	6.419248
20.94583	429.8356	6.398194
20.95416	429.9967	6.377161
20.9625	430.1598	6.356298
20.97083	430.3171	6.335737
20.97916	430.4784	6.315238
20.9875	430.6388	6.294642
20.99583	430.8024	6.274032
21.00417	430.963	6.25343
21.0125	431.1224	6.232732
21.02084	431.2838	6.212021
21.02917	431.4481	6.19128
21.0375	431.6076	6.170461
21.04584	431.7724	6.149636
21.05417	431.9321	6.128731
21.0625	432.0974	6.10783
21.07083	432.2581	6.086672
21.07916	432.4206	6.065254
21.0875	432.5832	6.043684
21.09583	432.7468	6.021968
21.10416	432.9081	5.99998
21.1125	433.0726	5.977742
21.12083	433.2354	5.955484
21.12917	433.4	5.933238
21.1375	433.5656	5.910891
21.14584	433.7289	5.888381
21.15417	433.893	5.865855
21.1625	434.0576	5.843215
21.17084	434.2222	5.820434
21.17917	434.3863	5.797661
21.1875	434.5518	5.774847
21.19583	434.7167	5.751949
21.20416	434.8781	5.728901
21.2125	435.0456	5.705514
21.22083	435.2118	5.6818
21.22916	435.376	5.657932
21.2375	435.5416	5.634087
21.24583	435.707	5.610326
21.25417	435.8727	5.586504
21.2625	436.035	5.562391
21.27084	436.2026	5.538132
21.27917	436.367	5.513761
21.2875	436.5306	5.4893
21.29584	436.695	5.464878
21.30417	436.8637	5.44043
21.3125	437.0266	5.415955
21.32083	437.193	5.391388
21.32916	437.3611	5.366765
21.3375	437.5275	5.342195
21.34583	437.6966	5.31768
21.35416	437.8649	5.293094
21.3625	438.0378	5.268352
21.37083	438.21	5.243426
21.37917	438.3836	5.218226
21.3875	438.5542	5.192978
21.39584	438.7236	5.167754
21.40417	438.8985	5.142581
21.4125	439.0696	5.117196
21.42084	439.2418	5.091653
21.42917	439.4144	5.06598
21.4375	439.5889	5.040097
21.44583	439.7596	5.014306
21.45416	439.9343	4.98845
21.4625	440.1068	4.962452
21.47083	440.2772	4.936161
21.47916	440.455	4.909598
21.4875	440.6285	4.882867
21.49583	440.802	4.856209
21.50417	440.9764	4.82942
21.5125	441.152	4.802475
21.52084	441.3291	4.775542
21.52917	441.5028	4.748344
21.5375	441.6769	4.720959
21.54584	441.854	4.693466
21.55417	442.0303	4.665882
21.5625	442.2047	4.638293
21.57083	442.3784	4.610604
21.57916	442.5543	4.582871
21.5875	442.73	4.555144
21.59583	442.9078	4.527396
21.60416	443.0824	4.499424
21.6125	443.2585	4.471142
21.62083	443.433	4.442455
21.62917	443.6096	4.413583
21.6375	443.7852	4.384662
21.64584	443.9604	4.35549
21.65417	444.1389	4.325996
21.6625	444.3136	4.296028
21.67084	444.4911	4.26557
21.67917	444.6684	4.234832
21.6875	444.8434	4.204082
21.69583	445.021	4.173511
21.70416	445.1952	4.143234
21.7125	445.3728	4.113018
21.72083	445.5521	4.082768
21.72916	445.7256	4.052364
21.7375	445.9034	4.02184
21.74583	446.0798	3.991406
21.75417	446.2554	3.960961
21.7625	446.4316	3.9305
21.77084	446.6098	3.899915
21.77917	446.7854	3.869082
21.7875	446.965	3.837898
21.79584	447.1403	3.806543
21.80417	447.3178	3.775089
21.8125	447.4956	3.743626
21.82083	447.6704	3.712094
21.82916	447.8461	3.680383
21.8375	448.025	3.64862
21.84583	448.2002	3.616663
21.85416	448.3752	3.5844
21.8625	448.5528	3.552033
21.87083	448.7309	3.51961
21.87917	448.9058	3.487042
21.8875	449.0842	3.454264
21.89584	449.2612	3.421352
21.90417	449.4334	3.388433
21.9125	449.6119	3.355527
21.92084	449.7893	3.322684
21.92917	449.9654	3.2898
21.9375	450.139	3.256875
21.94583	450.3168	3.223754
21.95416	450.4947	3.190462
21.9625	450.6666	3.157054
21.97083	450.8424	3.123626
21.97916	451.0197	3.09035
21.9875	451.1959	3.057176
21.99583	451.3692	3.023854
22.00417	451.5434	2.990305
22.0125	451.7193	2.956648
22.02084	451.896	2.922982
22.02917	452.0729	2.889417
22.0375	452.2458	2.856037
22.04584	452.4217	2.82275
22.05417	452.5977	2.789475
22.0625	452.7717	2.756126
22.07083	452.9489	2.72279
22.07916	453.1211	2.689566
22.0875	453.2959	2.65646
22.09583	453.4718	2.62353
22.10416	453.6467	2.590688
22.1125	453.8206	2.557891
22.12083	453.9969	2.525217
22.12917	454.17	2.492744
22.1375	454.3448	2.460432
22.14584	454.5178	2.428076
22.15417	454.6959	2.395581
22.1625	454.8696	2.363094
22.17084	455.0424	2.330669
22.17917	455.2184	2.29831
22.1875	455.3903	2.266196
22.19583	455.568	2.234424
22.20416	455.741	2.202783
22.2125	455.914	2.171288
22.22083	456.087	2.139984
22.22916	456.2619	2.109004
22.2375	456.4382	2.078252
22.24583	456.6094	2.047609
22.25417	456.7854	2.017151
22.2625	456.9566	1.986912
22.27084	457.1316	1.956792
22.27917	457.3047	1.926728
22.2875	457.4806	1.896934
22.29584	457.6534	1.86737
22.30417	457.8259	1.838049
22.3125	458.0002	1.80888
22.32083	458.1726	1.779933
22.32916	458.3458	1.751269
22.3375	458.5226	1.72284
22.34583	458.6942	1.69463
22.35416	458.868	1.666556
22.3625	459.0404	1.638652
22.37083	459.2138	1.610844
22.37917	459.3862	1.583145
22.3875	459.5613	1.555588
22.39584	459.7317	1.528259
22.40417	459.9072	1.501088
22.4125	460.0796	1.474074
22.42084	460.2519	1.447243
22.42917	460.426	1.420607
22.4375	460.5988	1.394248
22.44583	460.7722	1.368119
22.45416	460.945	1.342197
22.4625	461.1178	1.316527
22.47083	461.2894	1.291061
22.47916	461.4636	1.265761
22.4875	461.6334	1.24073
22.49583	461.8084	1.21604
22.50417	461.9829	1.191701
22.5125	462.1564	1.167673
22.52084	462.3294	1.143943
22.52917	462.5031	1.120464
22.5375	462.6738	1.097287
22.54584	462.8476	1.074361
22.55417	463.0188	1.05168
22.5625	463.1912	1.02925
22.57083	463.3656	1.007041
22.57916	463.5402	0.9850501
22.5875	463.7105	0.963273
22.59583	463.8833	0.9417459
22.60416	464.057	0.920462
22.6125	464.2296	0.8994679
22.62083	464.4033	0.8787592
22.62917	464.5756	0.8583069
22.6375	464.7496	0.83812
22.64584	464.9199	0.8182056
22.65417	465.0944	0.7985806
22.6625	465.2689	0.7792245
22.67084	465.4399	0.7601582
22.67917	465.6116	0.7413611
22.6875	465.786	0.7229019
22.69583	465.96	0.7047344
22.70416	466.129	0.686835
22.7125	466.3039	0.6692963
22.72083	466.4768	0.652147
22.72916	466.6498	0.6353387
22.7375	466.8211	0.6189097
22.74583	466.9946	0.602858
22.75417	467.168	0.5872372
22.7625	467.34	0.5720538
22.77084	467.5144	0.557289
22.77917	467.6872	0.5429934
22.7875	467.8594	0.5291672
22.79584	468.0302	0.515766
22.80417	468.2054	0.5028135
22.8125	468.3766	0.4903776
22.82083	468.5482	0.4784024
22.82916	468.723	0.466946
22.8375	468.895	0.455935
22.84583	469.0667	0.4453882
22.85416	469.2392	0.435285
22.8625	469.4114	0.425605
22.87083	469.5828	0.4163816
22.87917	469.755	0.4075824
22.8875	469.9254	0.3991091
22.89584	470.0965	0.3910647
22.90417	470.2708	0.383384
22.9125	470.4446	0.3760509
22.92084	470.6179	0.3690935
22.92917	470.7919	0.36245
22.9375	470.9658	0.356103
22.94583	471.1397	0.3500086
22.95416	471.3127	0.3442011
22.9625	471.4868	0.3386748
22.97083	471.6594	0.3334763
22.97916	471.8322	0.3284592
22.9875	472.0052	0.3236389
22.99583	472.1803	0.319035
23.00417	472.3519	0.314571
23.0125	472.5272	0.310296
23.02084	472.7052	0.3061722
23.02917	472.8833	0.3022568
23.0375	473.0553	0.2984886
23.04584	473.2294	0.2948432
23.05417	473.4029	0.291294
23.0625	473.5746	0.2878804
23.07083	473.753	0.2845451
23.07916	473.927	0.2813306
23.0875	474.1012	0.278218
23.09583	474.272	0.2752081
23.10416	474.445	0.2723172
23.1125	474.6201	0.2695278
23.12083	474.7918	0.266793
23.12917	474.9699	0.2641819
23.1375	475.1544	0.2616542
23.14584	475.339	0.2591748
23.15417	475.5205	0.2568672
23.1625	475.7	0.2546188
23.17084	475.8738	0.2524468
23.17917	476.045	0.2503584
23.1875	476.2124	0.2483658
23.19583	476.3762	0.2463928
23.20416	476.541	0.2444604
23.2125	476.7044	0.2426064
23.22083	476.8662	0.2408283
23.22916	477.0346	0.2391115
23.2375	477.2	0.2374298
23.24583	477.3662	0.235862
23.25417	477.5328	0.2343846
23.2625	477.6998	0.2330084
23.27084	477.8656	0.2316616
23.27917	478.0347	0.2304225
23.2875	478.2002	0.2292876
23.29584	478.37	0.228163
23.30417	478.5374	0.227142
23.3125	478.7052	0.2262047
23.32083	478.8748	0.2253514
23.32916	479.0406	0.2244672
23.3375	479.2096	0.223675
23.34583	479.378	0.2229003
23.35416	479.5474	0.2221988
23.3625	479.7168	0.2215753
23.37083	479.883	0.2210302
23.37917	480.0537	0.2205778
23.3875	480.2208	0.2201617
23.39584	480.389	0.2198178
23.40417	480.5589	0.2195183
23.4125	480.7259	0.2193077
23.42084	480.8943	0.2190718
23.42917	481.066	0.2188597
23.4375	481.2371	0.218731
23.44583	481.4125	0.2186416
23.45416	481.5806	0.2184976
23.4625	481.7481	0.2183698
23.47083	481.9219	0.2182915
23.47916	482.0861	0.218208
23.4875	482.2559	0.2181292
23.49583	482.4264	0.2180502
23.50417	482.5974	0.2180149
23.5125	482.7642	0.2179802
23.52084	482.9336	0.217909
23.52917	483.1018	0.2178406
23.5375	483.271	0.2177955
23.54584	483.4419	0.2177447
23.55417	483.6066	0.2176694
23.5625	483.7758	0.217582
23.57083	483.9452	0.2174937
23.57916	484.1139	0.2174159
23.5875	484.2817	0.2173686
23.59583	484.4496	0.2173326
23.60416	484.6188	0.2173242
23.6125	484.7869	0.2173078
23.62083	484.9554	0.2172815
23.62917	485.1226	0.2172725
23.6375	485.2898	0.217241
23.64584	485.4578	0.2172215
23.65417	485.6266	0.2172664
23.6625	485.7944	0.2172194
23.67084	485.9592	0.2171755
23.67917	486.1191	0.2171295
23.6875	486.2904	0.2170802
23.69583	486.4662	0.2169708
23.70416	486.6326	0.216927
23.7125	486.8042	0.216877
23.72083	486.9682	0.2168096
23.72916	487.136	0.2167626
23.7375	487.3027	0.216691
23.74583	487.4718	0.2166904
23.75417	487.6363	0.2166344
23.7625	487.804	0.2166016
23.77084	487.9746	0.2165654
23.77917	488.1424	0.2165823
23.7875	488.3063	0.2165792
23.79584	488.4702	0.216557
23.80417	488.6316	0.2165568
23.8125	488.8006	0.2165592
23.82083	488.9682	0.2165187
23.82916	489.1437	0.2164746
23.8375	489.3037	0.2164513
23.84583	489.4664	0.2164197
23.85416	489.6344	0.2163692
23.8625	489.7981	0.2163168
23.87083	489.9676	0.2162893
23.87917	490.1358	0.2162723
23.8875	490.3037	0.2162447
23.89584	490.4716	0.2161818
23.90417	490.6363	0.2161769
23.9125	490.8019	0.2161708
23.92084	490.9706	0.2161598
23.92917	491.1369	0.216168
23.9375	491.3043	0.2161659
23.94583	491.4691	0.2161669
23.95416	491.6378	0.2161828
23.9625	491.8057	0.2161934
23.97083	491.9744	0.2162092
23.97916	492.139	0.2162453
23.9875	492.3047	0.2162352
23.99583	492.4726	0.2162383
24.00417	492.6398	0.2162524
24.0125	492.8062	0.2162404
24.02084	492.9691	0.2162504
24.02917	493.137	0.2162458
24.0375	493.3065	0.2162148
24.04584	493.4722	0.2161763
24.05417	493.6406	0.2161834
24.0625	493.8043	0.2161632
24.07083	493.971	0.2160902
24.07916	494.1364	0.2160433
24.0875	494.3054	0.2159824
24.09583	494.4728	0.215965
24.10416	494.639	0.2159393
24.1125	494.806	0.2159065
24.12083	494.97	0.2159074
24.12917	495.1376	0.2159102
24.1375	495.3067	0.2158669
24.14584	495.4716	0.2158568
24.15417	495.6384	0.2158914
24.1625	495.8049	0.2158947
24.17084	495.9718	0.2159403
24.17917	496.1374	0.2159174
24.1875	496.3045	0.215899
24.19583	496.472	0.2159044
24.20416	496.6382	0.2158556
24.2125	496.8053	0.2158121
24.22083	496.9704	0.2158092
24.22916	497.1362	0.2158032
24.2375	497.306	0.2157868
24.24583	497.4712	0.2157881
24.25417	497.6378	0.215773
24.2625	497.8054	0.2157732
24.27084	497.968	0.2157926
24.27917	498.1358	0.2158004
24.2875	498.3034	0.2157963
24.29584	498.4711	0.2158315
24.30417	498.6389	0.2158216
24.3125	498.8046	0.2158182
24.32083	498.9687	0.215829
24.32916	499.1389	0.2158493
24.3375	499.3006	0.2158456
24.34583	499.4687	0.2158745
24.35416	499.638	0.2158664
24.3625	499.8022	0.2158635
24.37083	499.9697	0.215881
24.37917	500.1359	0.2158695
24.3875	500.3035	0.215882
24.39584	500.4691	0.2158761
24.40417	500.6374	0.215866
24.4125	500.8023	0.2158464
24.42084	500.9683	0.215856
24.42917	501.1351	0.2158372
24.4375	501.3008	0.2158165
24.44583	501.469	0.2157592
24.45416	501.6346	0.2157297
24.4625	501.8002	0.2156966
24.47083	501.9672	0.2156755
24.47916	502.1346	0.215669
24.4875	502.3004	0.215677
24.49583	502.4688	0.2156678
24.50417	502.6332	0.2156641
24.5125	502.8052	0.2156673
24.52084	502.9769	0.2156573
24.52917	503.1416	0.2157074
24.5375	503.3078	0.2157061
24.54584	503.4766	0.2157044
24.55417	503.6419	0.2156875
24.5625	503.8057	0.2156954
24.57083	503.975	0.2157103
24.57916	504.1421	0.2157087
24.5875	504.307	0.2156612
24.59583	504.4746	0.2156533
24.60416	504.6404	0.2156478
24.6125	504.8033	0.2156404
24.62083	504.9716	0.2156734
24.62917	505.1394	0.2157181
24.6375	505.3055	0.2157446
24.64584	505.4724	0.215744
24.65417	505.6381	0.2157158
24.6625	505.8066	0.2157326
24.67084	505.9725	0.2157592
24.67917	506.1387	0.2157582
24.6875	506.3023	0.2157855
24.69583	506.4683	0.2157861
24.70416	506.6364	0.2157465
24.7125	506.8036	0.2157168
24.72083	506.9682	0.215719
24.72916	507.1368	0.2157014
24.7375	507.3002	0.2156987
24.74583	507.468	0.215681
24.75417	507.6351	0.2156858
24.7625	507.7986	0.2156799
24.77084	507.9686	0.2156545
24.77917	508.1326	0.2156223
24.7875	508.3008	0.2156497
24.79584	508.4644	0.2156636
24.80417	508.6319	0.2156784
24.8125	508.8	0.2156765
24.82083	508.9663	0.215664
24.82916	509.1325	0.2156398
24.8375	509.297	0.2156289
24.84583	509.4644	0.2156538
24.85416	509.6304	0.2156864
24.8625	509.7956	0.2157377
24.87083	509.9602	0.2157307
24.87917	510.1218	0.2157196
24.8875	510.289	0.2156827
24.89584	510.4526	0.2156881
24.90417	510.62	0.2157246
24.9125	510.7881	0.2157806
24.92084	510.952	0.215793
24.92917	511.1196	0.2157826
24.9375	511.288	0.2157467
24.94583	511.4522	0.2157165
24.95416	511.6187	0.2157106
24.9625	511.7868	0.2157066
24.97083	511.9546	0.2157444
24.97916	512.1184	0.2157492
24.9875	512.2854	0.215716
24.99583	512.4522	0.2156662
25.00417	512.6184	0.2156515
25.0125	512.785	0.2156329
25.02084	512.9524	0.2156526
25.02917	513.1172	0.2156186
25.0375	513.2847	0.215609
25.04584	513.4516	0.2156062
25.05417	513.6186	0.215563
25.0625	513.7826	0.2155462
25.07083	513.9496	0.2155639
25.07916	514.1187	0.2155834
25.0875	514.2843	0.2155826
25.09583	514.4515	0.2155774
25.10416	514.6162	0.2155582
25.1125	514.7832	0.2155996
25.12083	514.9509	0.2156216
25.12917	515.116	0.2156513
25.1375	515.2836	0.2156444
25.14584	515.4504	0.2156737
25.15417	515.6157	0.2157054
25.1625	515.782	0.2157064
25.17084	515.9504	0.2156942
25.17917	516.1152	0.2156946
25.1875	516.282	0.2156852
25.19583	516.4485	0.2156768
25.20416	516.6163	0.2156779
25.2125	516.7835	0.21565
25.22083	516.947	0.2156662
25.22916	517.1153	0.2156584
25.2375	517.2818	0.215622
25.24583	517.4448	0.2156198
25.25417	517.6137	0.2156146
25.2625	517.7804	0.2156072
25.27084	517.9464	0.2156338
25.27917	518.1132	0.2156619
25.2875	518.2762	0.2157846
25.29584	518.4459	0.2157989
25.30417	518.6142	0.2157897
25.3125	518.7794	0.215766
25.32083	518.9444	0.2157332
25.32916	519.1127	0.2156691
25.3375	519.2776	0.2156713
25.34583	519.443	0.2156916
25.35416	519.6085	0.2156972
25.3625	519.7772	0.2156681
25.37083	519.9443	0.215543
25.37917	520.111	0.21553
25.3875	520.2766	0.2155312
25.39584	520.4418	0.2155449
25.40417	520.6124	0.2155944
25.4125	520.7761	0.2156798
25.42084	520.9417	0.2156976
25.42917	521.109	0.215686
25.4375	521.2778	0.215664
25.44583	521.4407	0.215642
25.45416	521.6093	0.215599
25.4625	521.7742	0.2155594
25.47083	521.9416	0.2155634
25.47916	522.1086	0.2155503
25.4875	522.275	0.2154539
25.49583	522.4408	0.2153934
25.50417	522.6076	0.2153595
25.5125	522.7764	0.2153798
25.52084	522.9419	0.2153792
25.52917	523.1081	0.2153956
25.5375	523.2753	0.2154337
25.54584	523.4469	0.2154814
25.55417	523.6179	0.2154953
25.5625	523.7838	0.2155017
25.57083	523.9518	0.2155918
25.57916	524.114	0.2156161
25.5875	524.2732	0.2156376
25.59583	524.44	0.2155806
25.60416	524.6084	0.2155762
25.6125	524.7748	0.2155399
25.62083	524.943	0.215499
25.62917	525.1071	0.2154671
25.6375	525.275	0.2153967
25.64584	525.439	0.2153758
25.65417	525.6076	0.2153308
25.6625	525.7735	0.2153244
25.67084	525.9408	0.2153127
25.67916	526.1068	0.2153428
25.6875	526.274	0.2153714
25.69584	526.4399	0.2154036
25.70416	526.6066	0.2154184
25.7125	526.7731	0.2153816
25.72083	526.9397	0.2154707
25.72916	527.1062	0.215483
25.7375	527.2731	0.2154284
25.74583	527.4397	0.2153242
25.75417	527.613	0.2153117
25.7625	527.7807	0.2153679
25.77084	527.9474	0.2153586
25.77917	528.1133	0.2152895
25.7875	528.2729	0.2152273
25.79584	528.4361	0.2152912
25.80416	528.6063	0.2152734
25.8125	528.7729	0.2151623
25.82084	528.9389	0.2151637
25.82916	529.106	0.2152768
25.8375	529.2714	0.2153168
25.84583	529.4378	0.2152581
25.85416	529.6039	0.2152392
25.8625	529.7714	0.2152929
25.87083	529.9408	0.2153616
25.87917	530.1032	0.215359
25.8875	530.2711	0.2153774
25.89584	530.436	0.2155144
25.90417	530.605	0.2155696
25.9125	530.7704	0.215492
25.92084	530.938	0.2154402
25.92916	531.1033	0.2154938
25.9375	531.2684	0.2155026
25.94584	531.4371	0.2154074
25.95416	531.6036	0.2153681
25.9625	531.768	0.2154058
25.97083	531.9394	0.215398
25.97916	532.1031	0.2152592
25.9875	532.269	0.2152037
25.99583	532.4384	0.2152931
26.00417	532.603	0.215328
26.0125	532.7676	0.2151455
26.02084	532.9325	0.2150664
26.02917	533.0992	0.2151568
26.0375	533.2657	0.2152115
26.04584	533.433	0.2151617
26.05416	533.6021	0.2150527
26.0625	533.7672	0.2151482
26.07084	533.934	0.2152199
26.07916	534.0996	0.2151768
26.0875	534.2652	0.2151474
26.09583	534.4304	0.2152844
26.10416	534.5993	0.215366
26.1125	534.7676	0.2153757
26.12083	534.9335	0.2153348
26.12917	535.1	0.2153248
26.1375	535.2682	0.2154107
26.14584	535.4347	0.2154164
26.15417	535.6055	0.2154112
26.1625	535.7707	0.215448
26.17084	535.9336	0.215465
26.17916	536.0996	0.2154251
26.1875	536.2656	0.2154127
26.19584	536.4329	0.2154156
26.20416	536.5987	0.2154401
26.2125	536.7653	0.2154348
26.22083	536.9336	0.215407
26.22916	537.0966	0.215404
26.2375	537.263	0.2154097
26.24583	537.4307	0.2153882
26.25417	537.6005	0.2154159
26.2625	537.7652	0.2154492
26.27084	537.9316	0.2154509
26.27917	538.0988	0.2154365
26.2875	538.266	0.2154303
26.29584	538.4324	0.2154372
26.30416	538.5979	0.2154451
26.3125	538.766	0.2154419
26.32084	538.9322	0.2154411
26.32916	539.0992	0.2154399
26.3375	539.2644	0.215406
26.34583	539.4305	0.2153866
26.35416	539.599	0.2153098
26.3625	539.7645	0.215269
26.37083	539.93	0.2151982
26.37917	540.0972	0.2151771
26.3875	540.2632	0.2152002
26.39584	540.4286	0.2151648
26.40417	540.5943	0.2151788
26.4125	540.7626	0.2151949
26.42084	540.9268	0.2152109
26.42916	541.096	0.2152119
26.4375	541.2615	0.2152541
26.44584	541.4269	0.215233
26.45416	541.5966	0.215289
26.4625	541.76	0.2152636
26.47083	541.928	0.2152179
26.47916	542.0935	0.2152525
26.4875	542.2609	0.2152211
26.49583	542.4256	0.2152034
26.50417	542.5929	0.2152085
26.5125	542.7606	0.215215
26.52084	542.9269	0.2152487
26.52917	543.0928	0.21533
26.5375	543.259	0.2153568
26.54584	543.425	0.2154089
26.55416	543.593	0.2154308
26.5625	543.759	0.2154344
26.57084	543.9254	0.2154252
26.57916	544.0914	0.2154192
26.5875	544.2606	0.2153797
26.59583	544.4243	0.2153506
26.60416	544.5906	0.2153312
26.6125	544.7562	0.2153245
26.62083	544.9239	0.215316
26.62917	545.0913	0.2153066
26.6375	545.2557	0.2153067
26.64584	545.4243	0.2153133
26.65417	545.5912	0.21533
26.6625	545.763	0.2153466
26.67084	545.9328	0.2153606
26.67916	546.0962	0.21538
26.6875	546.2616	0.2153818
26.69584	546.4291	0.215386
26.70416	546.5955	0.2154066
26.7125	546.7602	0.2154022
26.72083	546.9204	0.2153784
26.72916	547.0862	0.215356
26.7375	547.2533	0.2153332
26.74583	547.4176	0.2153056
26.75417	547.5837	0.2152867
26.7625	547.7582	0.2152532
26.77084	547.919	0.2152332
26.77917	548.0836	0.2151777
26.7875	548.2486	0.2151277
26.79584	548.4178	0.2151389
26.80416	548.5832	0.2151722
26.8125	548.748	0.2151896
26.82084	548.915	0.2151951
26.82916	549.081	0.2152222
26.8375	549.2496	0.2152598
26.84583	549.4152	0.2152803
26.85416	549.5818	0.2152966
26.8625	549.746	0.2153602
26.87083	549.9137	0.2154068
26.87917	550.0801	0.2154242
26.8875	550.2474	0.2154629
26.89584	550.4133	0.2154915
26.90417	550.5791	0.2155377
26.9125	550.7457	0.215558
26.92084	550.9145	0.215572
26.92916	551.0792	0.2156328
26.9375	551.2466	0.2156768
26.94584	551.4124	0.2156812
26.95416	551.5788	0.2156702
26.9625	551.7508	0.2156628
26.97083	551.92	0.2156285
26.97916	552.0857	0.215618
26.9875	552.2425	0.2155861
26.99583	552.408	0.2155645
27.00417	552.5722	0.2155646
27.0125	552.7396	0.2155332
27.02084	552.9076	0.2155173
27.02917	553.0732	0.215479
27.0375	553.2402	0.2154761
27.04584	553.409	0.2154952
27.05416	553.5802	0.215522
27.0625	553.7455	0.2155474
27.07084	553.9041	0.2155752
27.07916	554.0709	0.2155852
27.0875	554.238	0.2155905
27.09583	554.4034	0.2156012
27.10416	554.5693	0.215612
27.1125	554.7374	0.2156474
27.12083	554.9014	0.2156694
27.12917	555.0689	0.2156559
27.1375	555.2349	0.215654
27.14584	555.403	0.2156285
27.15417	555.568	0.2156342
27.1625	555.7331	0.2156245
27.17084	555.9008	0.2155889
27.17916	556.0675	0.2155814
27.1875	556.2312	0.2155744
27.19584	556.399	0.215614
27.20416	556.5646	0.215555
27.2125	556.7322	0.2155542
27.22083	556.8987	0.215556
27.22916	557.065	0.2155461
27.2375	557.2374	0.2155392
27.24583	557.4062	0.2155338
27.25417	557.5722	0.2155624
27.2625	557.739	0.2155782
27.27084	557.9053	0.2155818
27.27917	558.07	0.2155541
27.2875	558.2392	0.2156054
27.29584	558.4041	0.2155965
27.30416	558.5681	0.2155626
27.3125	558.7365	0.2155858
27.32084	558.8981	0.2155806
27.32916	559.0594	0.2155798
27.3375	559.2266	0.2155777
27.34583	559.393	0.2155556
27.35416	559.5608	0.2155486
27.3625	559.7266	0.2155204
27.37083	559.8901	0.2154953
27.37917	560.0578	0.2154946
27.3875	560.2263	0.2155096
27.39584	560.3889	0.215511
27.40417	560.5566	0.2155046
27.4125	560.7238	0.215549
27.42084	560.889	0.2155801
27.42916	561.0544	0.2156172
27.4375	561.2216	0.2156406
27.44584	561.3899	0.2156578
27.45416	561.5554	0.215665
27.4625	561.7209	0.2156905
27.47083	561.8871	0.2156992
27.47916	562.0613	0.2156958
27.4875	562.2203	0.2157242
27.49583	562.3878	0.2157332
27.50417	562.5531	0.2157217
27.5125	562.7194	0.2157054
27.52084	562.8878	0.2157253
27.52917	563.0526	0.2157025
27.5375	563.2176	0.2157176
27.54584	563.3832	0.2157041
27.55416	563.5488	0.2156749
27.5625	563.7176	0.2156459
27.57084	563.8836	0.2155821
27.57916	564.05	0.2155398
27.5875	564.2174	0.2155406
27.59583	564.384	0.2155614
27.60416	564.5493	0.2155458
27.6125	564.7149	0.2155842
27.62083	564.8828	0.2156074
27.62917	565.0472	0.215642
27.6375	565.215	0.2156953
27.64584	565.3828	0.2157009
27.65417	565.5472	0.2157986
27.6625	565.7136	0.2157926
27.67084	565.8788	0.2157209
27.67916	566.047	0.2156916
27.6875	566.2138	0.2156765
27.69584	566.3783	0.215654
27.70416	566.5463	0.2156422
27.7125	566.712	0.2156176
27.72083	566.8871	0.2156065
27.72916	567.0445	0.2156464
27.7375	567.21	0.2156136
27.74583	567.3774	0.2156408
27.75417	567.5428	0.2157203
27.7625	567.709	0.2157294
27.77084	567.8761	0.2157334
27.77917	568.041	0.2157432
27.7875	568.2078	0.2157357
27.79584	568.3834	0.2156654
27.80416	568.5502	0.2156276
27.8125	568.7148	0.2155924
27.82084	568.8798	0.2155589
27.82916	569.0474	0.2154965
27.8375	569.2131	0.2154626
27.84583	569.3796	0.2154602
27.85416	569.5463	0.2154702
27.8625	569.7136	0.2154893
27.87083	569.8798	0.2155058
27.87917	570.0445	0.2155628
27.8875	570.2118	0.2155785
27.89584	570.3793	0.2155858
27.90417	570.541	0.2156096
27.9125	570.7001	0.2156584
27.92084	570.8661	0.2156805
27.92916	571.035	0.2157068
27.9375	571.2011	0.2156761
27.94584	571.3652	0.2156668
27.95416	571.5318	0.2156791
27.9625	571.6982	0.2156972
27.97083	571.8648	0.2157139
27.97916	572.0316	0.2157398
27.9875	572.195	0.2157403
27.99583	572.3632	0.2157432
28.00417	572.5312	0.2157516
28.0125	572.6969	0.2157573
28.02084	572.8614	0.2158032
28.02917	573.028	0.2158066
28.0375	573.1955	0.2157924
28.04584	573.3601	0.215786
28.05416	573.5298	0.2158177
28.0625	573.6932	0.2158154
28.07084	573.8604	0.2158275
28.07916	574.0274	0.2158427
28.0875	574.1926	0.215845
28.09583	574.3588	0.2158282
28.10416	574.525	0.2158423
28.1125	574.6931	0.2158434
28.12083	574.8609	0.2158835
28.12917	575.0255	0.215914
28.1375	575.1915	0.215888
28.14584	575.3566	0.2158984
28.15417	575.5265	0.2158918
28.1625	575.6906	0.2158952
28.17084	575.8548	0.2159085
28.17916	576.0224	0.2159421
28.1875	576.1899	0.2159328
28.19584	576.357	0.2159649
28.20416	576.5232	0.2159432
28.2125	576.688	0.2159408
28.22083	576.8574	0.21596
28.22916	577.0215	0.2159814
28.2375	577.188	0.2159945
28.24583	577.3551	0.2160214
28.25417	577.5203	0.2160362
28.2625	577.687	0.216011
28.27084	577.8544	0.215991
28.27917	578.0211	0.2159702
28.2875	578.1858	0.2159771
28.29584	578.3544	0.2159684
28.30416	578.5195	0.2159433
28.3125	578.6865	0.2159121
28.32084	578.8518	0.2159186
28.32916	579.0182	0.2159074
28.3375	579.1843	0.2158837
28.34583	579.3504	0.2158809
28.35416	579.5172	0.2158986
28.3625	579.6852	0.2158982
28.37083	579.851	0.2159025
28.37917	580.013	0.2159265
28.3875	580.1828	0.2159641
28.39584	580.3488	0.2159498
28.40417	580.516	0.2159218
28.4125	580.6826	0.2159514
28.42084	580.8476	0.2159424
28.42916	581.0134	0.2159098
28.4375	581.1799	0.2158908
28.44584	581.3516	0.2159
28.45416	581.521	0.2159024
28.4625	581.6877	0.2158813
28.47083	581.8536	0.215867
28.47916	582.0182	0.2159068
28.4875	582.1894	0.2159246
28.49583	582.3528	0.2158922
28.50417	582.5174	0.2158986
28.5125	582.6842	0.2159311
28.52084	582.8503	0.2159619
28.52917	583.0176	0.2159705
28.5375	583.1816	0.2159875
28.54584	583.3407	0.2159855
28.55416	583.5078	0.2159956
28.5625	583.6746	0.2160047
28.57084	583.8386	0.2160268
28.57916	584.005	0.2160506
28.5875	584.1736	0.2160846
28.59583	584.3388	0.2161118
28.60416	584.5089	0.2161168
28.6125	584.6755	0.2161151
28.62083	584.8374	0.2160871
28.62917	585.0046	0.2160646
28.6375	585.1712	0.2160362
28.64584	585.3369	0.215998
28.65417	585.5034	0.2159672
28.6625	585.6716	0.2159417
28.67084	585.8375	0.2159101
28.67916	586.0048	0.215871
28.6875	586.1686	0.2158423
28.69584	586.3379	0.2158421
28.70416	586.5021	0.2158493
28.7125	586.668	0.2158805
28.72083	586.8349	0.2159019
28.72916	586.9986	0.2159336
28.7375	587.1684	0.215947
28.74583	587.3332	0.2159603
28.75417	587.502	0.2159703
28.7625	587.6678	0.2159672
28.77084	587.8316	0.2159385
28.77917	588	0.2159119
28.7875	588.1664	0.2159065
28.79584	588.3316	0.2158828
28.80416	588.4986	0.21588
28.8125	588.6661	0.2158875
28.82084	588.8326	0.2159115
28.82916	588.9979	0.2158941
28.8375	589.1648	0.2158982
28.84583	589.3312	0.2159455
28.85416	589.4967	0.216001
28.8625	589.6636	0.216039
28.87083	589.8293	0.2160568
28.87917	589.9975	0.2160996
28.8875	590.1639	0.2161076
28.89584	590.3282	0.2160962
28.90417	590.494	0.216109
28.9125	590.6602	0.2161394
28.92084	590.8281	0.2161267
28.92916	590.9922	0.2161222
28.9375	591.1616	0.2161194
28.94584	591.3266	0.216103
28.95416	591.4946	0.2160864
28.9625	591.6637	0.2160654
28.97083	591.8248	0.2160696
28.97916	591.9938	0.2160676
28.9875	592.1604	0.2160303
28.99583	592.3261	0.2160626
29.00417	592.4925	0.2160737
